timestamps,TP9,AF7,AF8,TP10,Right AUX
1587019717.834,35.156,39.551,33.203,25.879,63.477
1587019717.838,93.750,38.574,32.227,78.125,96.680
1587019717.842,72.754,41.504,36.621,69.824,62.988
1587019717.846,12.207,41.016,39.551,20.020,6.348
1587019717.850,16.602,36.133,39.062,17.578,-18.555
1587019717.854,80.078,32.715,38.086,68.359,25.879
1587019717.858,82.031,30.762,40.527,75.195,9.766
1587019717.862,20.508,35.156,43.945,20.996,-25.879
1587019717.865,5.371,33.691,41.016,-6.348,16.113
1587019717.869,55.664,32.715,37.598,37.109,56.152
1587019717.873,89.844,37.598,37.598,73.730,79.102
1587019717.877,43.457,37.598,40.039,36.621,48.828
1587019717.881,0.000,36.621,38.574,-4.395,-16.602
1587019717.885,40.039,35.156,36.621,22.949,10.742
1587019717.889,69.336,31.250,34.668,68.359,44.922
1587019717.893,29.785,34.668,34.668,47.363,30.762
1587019717.897,-13.672,36.621,36.133,0.000,66.406
1587019717.901,16.113,33.203,32.227,11.719,55.176
1587019717.905,81.055,32.715,31.250,67.383,-9.766
1587019717.908,67.871,34.180,36.133,69.824,22.949
1587019717.912,14.160,35.156,39.551,20.020,74.219
1587019717.916,19.531,34.668,37.598,14.160,10.254
1587019717.920,74.707,34.668,34.668,65.430,6.836
1587019717.924,83.984,35.156,33.691,78.613,16.113
1587019717.928,21.484,34.668,36.133,23.926,51.270
1587019717.932,-0.488,35.645,36.133,-8.789,56.641
1587019717.936,62.500,34.180,33.203,33.691,24.902
1587019717.940,88.867,31.250,30.273,70.312,22.461
1587019717.944,38.086,36.133,35.156,35.645,19.531
1587019717.947,-5.859,37.109,37.109,-3.906,22.949
1587019717.951,26.855,33.691,31.250,16.602,62.012
1587019717.955,83.008,32.715,29.785,60.547,31.738
1587019717.959,56.152,35.645,31.250,46.875,-13.672
1587019717.963,-1.953,36.133,33.691,2.930,22.461
1587019717.967,15.137,32.227,35.156,11.719,55.664
1587019717.971,77.148,31.250,33.691,66.895,32.227
1587019717.975,72.754,35.156,35.156,74.219,31.738
1587019717.979,8.789,35.645,35.645,24.902,37.598
1587019717.983,8.301,33.691,35.645,12.695,19.531
1587019717.987,68.848,33.203,35.645,63.477,29.785
1587019717.990,65.918,31.738,33.691,83.984,39.062
1587019717.994,4.883,33.691,34.668,34.180,43.457
1587019717.998,-4.883,34.180,35.645,1.953,0.488
1587019718.002,56.641,32.227,29.785,42.480,40.527
1587019718.006,88.379,35.645,28.320,79.590,14.160
1587019718.010,28.809,36.133,32.227,44.434,-33.203
1587019718.014,-0.977,34.180,31.250,2.441,-15.625
1587019718.018,40.527,34.668,31.250,29.297,6.348
1587019718.022,75.684,29.785,32.227,75.684,25.879
1587019718.026,48.828,30.762,33.203,59.082,20.508
1587019718.030,-10.254,34.180,37.109,8.301,19.043
1587019718.033,1.953,30.762,35.645,6.836,17.090
1587019718.037,62.012,33.203,37.109,61.035,44.922
1587019718.041,56.641,33.691,38.574,72.754,29.785
1587019718.045,1.465,33.203,39.551,22.461,18.555
1587019718.049,-8.789,35.645,39.551,3.418,110.840
1587019718.053,46.387,32.227,34.180,45.898,107.422
1587019718.057,68.359,32.227,31.738,74.707,21.973
1587019718.061,19.531,34.668,34.668,31.250,70.312
1587019718.065,-12.207,36.133,36.621,-3.418,77.637
1587019718.069,33.203,33.691,33.691,30.273,9.277
1587019718.072,81.055,33.691,33.691,70.801,5.859
1587019718.076,38.086,38.086,36.621,44.922,4.883
1587019718.080,-12.207,37.598,36.621,-1.953,16.113
1587019718.084,19.043,33.203,33.691,18.066,20.508
1587019718.088,73.730,32.715,34.180,70.312,60.059
1587019718.092,54.688,35.156,38.574,54.688,53.711
1587019718.096,-1.953,38.086,40.039,-3.418,-1.953
1587019718.100,4.395,35.156,37.598,-2.930,-2.930
1587019718.104,62.988,35.156,33.691,50.781,24.902
1587019718.108,55.664,33.691,30.762,59.082,53.711
1587019718.112,0.488,26.367,33.203,22.461,47.363
1587019718.115,-10.254,34.180,30.762,7.812,-5.859
1587019718.119,26.855,41.504,23.438,20.996,28.809
1587019718.123,65.430,39.062,18.066,37.598,62.012
1587019718.127,28.320,41.016,17.090,14.648,-0.488
1587019718.131,-11.719,40.527,19.531,-14.160,-27.832
1587019718.135,38.086,37.109,15.625,16.113,-15.625
1587019718.139,94.238,35.156,11.719,70.312,-27.344
1587019718.143,64.941,38.086,15.137,52.246,24.414
1587019718.147,11.230,41.992,18.066,10.254,55.664
1587019718.151,28.809,41.016,15.625,33.203,27.344
1587019718.155,95.703,40.527,9.766,87.402,33.203
1587019718.158,112.793,42.969,11.719,91.309,70.801
1587019718.162,56.641,42.969,20.508,47.852,7.324
1587019718.166,41.504,37.598,22.461,43.945,-31.250
1587019718.170,115.723,32.715,22.949,100.098,-9.277
1587019718.174,144.531,34.668,24.414,121.582,-49.805
1587019718.178,76.172,36.621,28.320,73.730,-0.488
1587019718.182,33.203,35.156,32.715,49.316,59.570
1587019718.186,107.910,33.691,31.250,96.191,23.926
1587019718.190,151.855,34.180,29.785,132.324,42.969
1587019718.194,98.145,40.039,34.668,93.750,43.457
1587019718.197,62.500,41.016,36.621,56.641,-30.273
1587019718.201,101.074,35.156,35.645,79.102,-15.625
1587019718.205,134.766,34.180,36.621,120.605,-5.371
1587019718.209,90.820,37.598,38.086,105.957,26.367
1587019718.213,44.434,38.086,40.039,52.734,69.336
1587019718.217,75.684,40.527,43.945,59.570,26.855
1587019718.221,128.418,36.133,40.527,114.258,57.617
1587019718.225,112.305,29.785,37.598,110.840,111.816
1587019718.229,49.316,36.621,42.480,58.594,56.641
1587019718.233,43.945,39.062,42.480,45.410,6.348
1587019718.237,100.586,34.180,38.086,86.914,20.996
1587019718.240,104.980,37.109,32.715,105.957,40.039
1587019718.244,45.898,41.504,34.668,63.477,53.711
1587019718.248,25.879,42.969,39.551,32.227,51.758
1587019718.252,81.543,41.504,38.574,73.242,61.035
1587019718.256,118.164,38.574,35.156,111.816,44.434
1587019718.260,64.453,39.062,38.574,75.195,30.762
1587019718.264,19.043,37.598,41.504,28.320,13.672
1587019718.268,60.059,35.156,37.598,49.805,61.523
1587019718.272,106.445,37.598,36.133,101.074,99.609
1587019718.276,83.496,37.598,37.109,84.473,78.613
1587019718.280,34.668,41.016,37.109,31.250,55.176
1587019718.283,44.434,43.457,35.645,30.762,15.625
1587019718.287,98.633,40.039,33.691,82.031,45.410
1587019718.291,93.262,39.062,38.086,92.773,84.473
1587019718.295,34.180,39.062,41.504,35.645,42.969
1587019718.299,7.812,37.598,41.504,12.695,-13.672
1587019718.303,63.965,31.250,40.527,57.617,15.137
1587019718.307,98.145,29.785,40.039,86.914,46.875
1587019718.311,29.297,34.180,45.410,46.875,8.789
1587019718.315,-8.789,37.109,45.898,6.836,-3.906
1587019718.319,51.270,35.156,40.527,41.016,28.320
1587019718.322,107.422,34.668,37.598,85.449,28.809
1587019718.326,58.105,38.086,40.039,56.152,-10.742
1587019718.330,5.371,38.574,41.992,10.742,-10.254
1587019718.334,50.781,34.668,40.527,28.809,22.949
1587019718.338,91.309,36.133,41.016,70.801,23.926
1587019718.342,52.734,33.691,41.504,55.664,22.949
1587019718.346,4.883,26.855,41.504,14.160,36.133
1587019718.350,23.926,29.297,40.039,21.973,17.090
1587019718.354,96.191,30.273,35.156,78.613,32.227
1587019718.358,106.934,27.344,33.203,100.586,54.688
1587019718.362,51.758,27.832,37.109,58.594,-13.672
1587019718.365,32.227,29.785,39.551,43.457,-37.109
1587019718.369,79.102,28.320,36.133,94.727,17.090
1587019718.373,128.418,30.762,34.180,128.906,58.594
1587019718.377,80.566,37.109,37.598,85.938,64.941
1587019718.381,31.738,37.598,41.504,43.457,56.641
1587019718.385,78.125,34.668,39.062,68.848,19.043
1587019718.389,114.258,32.227,34.668,104.980,41.504
1587019718.393,60.059,36.133,38.574,81.543,42.480
1587019718.397,13.672,41.504,40.527,33.203,37.109
1587019718.401,45.898,39.062,33.691,37.598,53.711
1587019718.405,96.191,38.574,31.738,84.473,21.973
1587019718.408,66.406,41.504,33.203,80.566,44.434
1587019718.412,13.672,41.504,32.227,24.414,60.547
1587019718.416,17.090,40.039,34.180,16.113,18.555
1587019718.420,74.219,34.180,35.156,68.359,12.695
1587019718.424,87.891,33.691,35.645,86.914,30.762
1587019718.428,8.301,39.551,37.109,38.574,0.977
1587019718.432,-17.578,39.062,35.156,6.836,19.531
1587019718.436,43.945,33.203,32.715,49.805,61.035
1587019718.440,81.055,29.785,32.227,83.984,48.340
1587019718.444,34.180,34.668,36.621,43.457,26.367
1587019718.447,-0.977,39.062,39.062,4.395,24.414
1587019718.451,48.828,34.180,35.645,30.762,29.785
1587019718.455,101.562,33.203,32.227,76.660,-2.930
1587019718.459,71.289,35.645,33.691,59.082,20.508
1587019718.463,18.066,37.598,34.668,7.812,33.203
1587019718.467,34.668,36.621,34.180,11.719,-3.418
1587019718.471,83.008,34.668,33.203,63.477,29.297
1587019718.475,86.426,33.203,34.668,66.895,35.645
1587019718.479,11.230,33.203,41.016,21.973,20.508
1587019718.483,-15.625,34.180,40.039,13.184,70.801
1587019718.487,63.965,31.738,35.645,61.035,58.594
1587019718.490,68.848,31.250,36.621,86.426,29.785
1587019718.494,2.930,31.738,35.156,41.016,16.113
1587019718.498,-7.812,31.738,34.668,11.719,53.223
1587019718.502,51.270,33.203,35.645,47.363,70.312
1587019718.506,87.402,32.227,36.133,85.938,83.496
1587019718.510,27.344,37.109,39.062,56.152,50.781
1587019718.514,-16.602,41.016,38.086,3.418,-8.789
1587019718.518,27.344,34.180,35.645,19.043,-8.301
1587019718.522,86.426,34.180,35.156,68.848,18.555
1587019718.526,61.523,37.598,38.086,55.664,4.395
1587019718.530,-0.488,39.551,41.016,5.859,17.578
1587019718.533,14.648,40.527,38.574,5.859,-0.488
1587019718.537,64.453,37.109,38.086,59.570,-0.488
1587019718.541,66.895,35.156,38.086,72.266,100.098
1587019718.545,18.555,39.062,41.016,25.879,74.707
1587019718.549,5.371,40.039,41.016,7.812,-4.883
1587019718.553,66.406,38.086,36.621,51.758,-2.441
1587019718.557,89.355,38.574,36.133,81.055,87.402
1587019718.561,33.203,40.039,38.574,39.062,97.656
1587019718.565,7.812,41.016,37.598,4.883,43.457
1587019718.569,55.664,38.086,34.180,39.551,54.199
1587019718.572,85.449,36.621,35.156,81.543,61.035
1587019718.576,58.105,37.598,37.598,57.129,41.016
1587019718.580,6.836,39.062,38.086,8.789,4.883
1587019718.584,19.043,39.551,34.668,20.996,4.883
1587019718.588,88.867,36.133,32.715,71.777,9.766
1587019718.592,73.242,36.133,35.645,63.477,-2.441
1587019718.596,10.742,39.062,35.645,16.113,4.395
1587019718.600,10.742,37.109,33.203,10.254,33.691
1587019718.604,71.289,34.180,28.809,55.176,21.973
1587019718.608,85.938,35.645,29.297,74.219,-3.906
1587019718.612,25.879,40.039,31.250,24.902,9.766
1587019718.615,18.066,39.551,29.785,2.441,31.738
1587019718.619,77.148,36.133,30.273,51.758,-12.695
1587019718.623,103.516,34.180,31.250,84.961,2.930
1587019718.627,40.527,36.621,33.691,44.922,7.812
1587019718.631,4.883,38.574,33.203,2.441,-12.207
1587019718.635,54.199,37.109,32.715,31.738,-3.418
1587019718.639,97.656,35.156,32.715,78.125,37.109
1587019718.643,72.266,36.133,31.250,61.523,20.020
1587019718.647,14.160,38.086,37.598,13.184,2.930
1587019718.651,12.695,33.691,40.527,15.625,49.316
1587019718.655,63.965,28.320,37.598,62.012,48.828
1587019718.658,61.523,26.367,40.527,61.035,95.703
1587019718.662,-1.465,28.809,46.387,9.766,89.355
1587019718.666,11.719,31.250,46.387,4.395,59.082
1587019718.670,65.430,28.320,42.480,54.688,68.359
1587019718.674,72.266,28.320,41.504,70.801,38.574
1587019718.678,26.855,33.691,43.945,20.020,5.371
1587019718.682,-10.254,34.180,42.480,-7.812,2.930
1587019718.686,40.527,31.738,38.574,33.203,8.789
1587019718.690,81.055,31.250,38.086,66.895,-24.902
1587019718.694,37.109,33.203,41.016,32.715,36.621
1587019718.697,-2.930,37.109,40.527,-8.301,33.691
1587019718.701,34.180,32.227,35.645,14.648,0.488
1587019718.705,85.938,29.785,31.738,64.453,44.434
1587019718.709,50.781,33.203,35.645,45.898,48.828
1587019718.713,-4.883,35.645,39.062,-3.906,54.688
1587019718.717,9.277,35.156,37.109,5.859,22.949
1587019718.721,64.453,32.715,32.715,59.570,23.438
1587019718.725,67.871,34.180,30.762,63.477,44.434
1587019718.729,2.930,35.645,33.203,9.766,-0.977
1587019718.733,1.953,35.645,31.738,-5.859,-0.977
1587019718.737,66.895,37.598,29.785,45.410,39.551
1587019718.740,81.055,39.551,31.738,71.289,26.855
1587019718.744,21.484,37.598,36.133,26.367,34.180
1587019718.748,-7.324,38.574,36.133,-6.348,24.902
1587019718.752,43.945,36.133,32.715,30.762,-18.555
1587019718.756,87.891,31.250,32.715,71.777,22.949
1587019718.760,45.410,34.180,37.598,44.434,68.359
1587019718.764,-4.395,34.668,40.039,0.977,41.016
1587019718.768,27.344,34.180,36.621,21.973,33.203
1587019718.772,81.055,34.180,35.645,74.707,65.918
1587019718.776,57.129,37.109,37.598,61.523,13.672
1587019718.780,0.488,40.039,40.527,6.836,-12.695
1587019718.783,16.113,40.039,39.062,8.789,39.062
1587019718.787,69.336,33.691,36.133,63.965,36.133
1587019718.791,53.223,34.668,38.086,75.684,56.152
1587019718.795,1.465,40.527,39.062,21.973,59.082
1587019718.799,-0.488,39.062,38.574,3.906,46.875
1587019718.803,56.641,34.668,34.668,48.340,43.945
1587019718.807,83.008,35.645,33.691,74.219,70.312
1587019718.811,22.461,40.527,38.574,33.691,75.195
1587019718.815,-7.812,39.062,38.086,-2.441,21.484
1587019718.819,46.387,38.086,33.691,32.227,-4.883
1587019718.822,94.238,39.062,28.809,76.660,49.316
1587019718.826,55.176,41.504,30.762,47.852,40.039
1587019718.830,1.953,41.992,33.203,2.441,-10.254
1587019718.834,34.668,40.039,30.762,24.902,-26.367
1587019718.838,94.238,39.062,28.320,76.660,-24.902
1587019718.842,78.613,39.551,33.203,65.430,19.043
1587019718.846,17.578,38.574,38.574,14.648,11.719
1587019718.850,18.066,38.086,36.621,12.695,7.812
1587019718.854,81.543,34.668,34.180,62.012,58.105
1587019718.858,82.520,33.691,34.668,74.707,81.543
1587019718.862,21.484,39.062,38.086,24.902,35.156
1587019718.865,2.441,41.504,40.527,-1.953,22.461
1587019718.869,52.246,39.062,39.551,34.180,-22.461
1587019718.873,83.496,40.527,35.645,69.336,-33.203
1587019718.877,24.902,41.992,34.180,30.762,42.480
1587019718.881,-22.949,37.598,38.574,-7.812,50.293
1587019718.885,32.227,34.668,40.527,35.645,-41.504
1587019718.889,85.449,38.086,33.691,79.102,26.367
1587019718.893,39.551,36.621,35.156,35.156,111.816
1587019718.897,-19.043,32.715,38.086,-24.902,42.480
1587019718.901,4.395,31.738,31.738,-3.906,19.531
1587019718.905,68.359,32.227,30.273,52.734,52.246
1587019718.908,58.105,33.203,31.738,50.293,71.777
1587019718.912,1.953,36.133,34.668,2.441,41.504
1587019718.916,9.277,38.574,33.203,-0.977,10.254
1587019718.920,65.918,37.109,29.297,53.223,42.969
1587019718.924,74.707,36.133,28.809,75.684,48.828
1587019718.928,16.113,37.109,35.156,35.645,15.625
1587019718.932,-8.789,37.109,39.551,11.719,25.391
1587019718.936,50.293,36.621,36.621,54.688,36.621
1587019718.940,94.727,34.668,34.668,91.797,31.250
1587019718.944,51.270,38.574,39.551,57.617,67.871
1587019718.947,1.465,41.016,42.480,18.066,40.527
1587019718.951,31.738,33.691,40.527,44.922,-3.418
1587019718.955,91.797,32.715,41.016,88.867,85.938
1587019718.959,65.430,36.621,46.875,68.848,63.477
1587019718.963,1.465,36.133,46.875,16.602,11.719
1587019718.967,13.184,33.691,41.992,20.996,37.109
1587019718.971,75.684,33.203,38.086,74.219,23.438
1587019718.975,75.195,36.133,38.574,76.660,55.664
1587019718.979,5.859,38.574,41.992,27.344,78.125
1587019718.983,-10.254,37.109,35.645,8.301,22.949
1587019718.987,48.828,30.762,33.691,54.199,19.531
1587019718.990,85.449,35.645,38.574,102.051,32.227
1587019718.994,39.551,53.223,31.738,48.340,-5.859
1587019718.998,-12.695,56.641,29.785,-23.926,18.555
1587019719.002,19.531,43.457,31.250,1.953,82.520
1587019719.006,47.852,40.039,27.832,36.133,82.031
1587019719.010,-24.902,45.898,23.438,-20.996,69.336
1587019719.014,-91.797,45.410,22.461,-85.938,81.543
1587019719.018,-68.848,43.457,19.531,-80.566,30.273
1587019719.022,-34.668,39.551,15.625,-50.781,-13.184
1587019719.026,-69.824,42.480,15.137,-76.660,-13.672
1587019719.030,-137.207,47.852,12.695,-142.578,-17.578
1587019719.033,-127.441,48.828,4.395,-149.902,8.789
1587019719.037,-63.965,50.293,-3.418,-104.004,42.480
1587019719.041,-71.777,55.176,-4.883,-105.957,109.863
1587019719.045,-133.789,56.641,-1.953,-160.645,95.215
1587019719.049,-145.020,58.594,-0.977,-174.805,-20.020
1587019719.053,-83.496,64.941,-2.930,-126.953,21.484
1587019719.057,-55.664,65.918,-5.859,-95.215,48.340
1587019719.061,-108.887,66.406,-5.859,-135.254,-17.578
1587019719.065,-140.137,69.336,-5.371,-164.551,1.953
1587019719.069,-86.914,67.383,-8.301,-123.535,44.922
1587019719.072,-28.320,65.918,-5.371,-70.312,33.691
1587019719.076,-55.664,64.941,-1.465,-84.473,47.852
1587019719.080,-98.633,66.895,-3.906,-120.117,31.738
1587019719.084,-60.059,64.941,0.000,-88.379,21.484
1587019719.088,-0.488,59.082,5.859,-21.484,36.133
1587019719.092,-13.184,60.059,11.719,-19.043,30.762
1587019719.096,-57.129,60.547,14.648,-63.965,26.855
1587019719.100,-43.457,58.105,14.648,-56.641,2.930
1587019719.104,24.414,56.641,16.113,4.883,33.203
1587019719.108,35.156,57.617,18.066,20.996,58.594
1587019719.112,-25.879,57.617,18.555,-26.855,14.648
1587019719.115,-40.039,59.082,18.555,-43.945,-1.465
1587019719.119,19.043,58.594,18.066,4.395,40.527
1587019719.123,56.641,56.152,18.066,40.527,54.199
1587019719.127,9.766,56.641,20.996,5.371,20.996
1587019719.131,-32.715,58.594,22.949,-32.715,37.598
1587019719.135,19.043,52.734,19.043,-7.812,36.133
1587019719.139,71.777,48.340,19.043,38.574,23.926
1587019719.143,39.062,49.316,22.461,20.020,77.148
1587019719.147,-11.230,47.363,27.832,-22.461,75.684
1587019719.151,11.230,44.434,29.297,-8.301,3.418
1587019719.155,72.266,44.434,29.297,46.387,10.254
1587019719.158,64.453,45.898,29.785,48.340,1.953
1587019719.162,2.930,45.898,29.785,-4.395,-18.555
1587019719.166,-3.906,44.434,30.762,-7.812,5.859
1587019719.170,47.852,39.551,28.320,49.805,17.578
1587019719.174,67.871,41.016,31.250,70.801,59.082
1587019719.178,12.695,43.945,35.156,26.855,122.559
1587019719.182,-15.625,43.457,34.180,2.441,47.363
1587019719.186,38.574,42.969,30.762,39.062,-34.668
1587019719.190,72.754,41.992,28.320,71.289,-3.418
1587019719.194,16.113,43.457,29.785,34.668,-17.578
1587019719.197,-27.344,45.898,30.762,-5.859,7.324
1587019719.201,18.555,42.969,26.367,18.555,63.965
1587019719.205,76.660,42.969,28.320,67.871,49.316
1587019719.209,49.805,47.852,34.668,57.617,49.316
1587019719.213,-0.488,46.387,33.691,7.324,6.348
1587019719.217,27.344,44.434,33.691,17.578,-40.039
1587019719.221,92.285,41.992,35.156,70.801,0.977
1587019719.225,90.820,41.504,33.203,71.289,-0.488
1587019719.229,21.484,43.945,34.180,22.461,16.602
1587019719.233,6.836,41.504,36.621,8.789,29.785
1587019719.237,70.312,40.039,35.156,57.617,-48.828
1587019719.240,84.473,38.574,36.133,82.520,-28.320
1587019719.244,22.461,37.109,39.551,38.574,62.500
1587019719.248,-14.648,36.621,39.551,9.766,28.809
1587019719.252,34.668,34.668,35.156,43.945,-9.766
1587019719.256,78.613,34.180,29.297,80.078,7.812
1587019719.260,34.180,37.598,28.809,47.363,55.176
1587019719.264,-13.672,39.551,29.297,-1.953,20.996
1587019719.268,18.066,38.574,27.832,18.555,8.789
1587019719.272,73.242,39.062,27.344,70.312,10.742
1587019719.276,55.176,41.504,26.855,60.059,-24.414
1587019719.280,-5.859,39.551,26.855,3.418,-9.766
1587019719.283,2.441,35.645,23.926,-0.977,-19.531
1587019719.287,65.430,35.156,20.508,52.734,-3.906
1587019719.291,71.289,39.551,24.902,66.895,33.691
1587019719.295,10.254,41.504,28.809,18.066,39.551
1587019719.299,-9.766,39.551,27.832,0.000,4.395
1587019719.303,49.805,37.109,25.391,48.340,34.180
1587019719.307,74.219,37.109,28.320,78.125,110.352
1587019719.311,19.043,41.504,32.715,31.738,86.914
1587019719.315,2.930,41.504,26.367,1.953,5.371
1587019719.319,64.453,38.086,28.320,51.758,11.719
1587019719.322,82.031,36.133,39.551,81.055,51.270
1587019719.326,22.949,33.691,42.969,37.109,-25.879
1587019719.330,-21.484,30.273,41.992,-9.277,-17.578
1587019719.334,4.395,23.926,40.039,1.953,77.148
1587019719.338,47.852,15.625,42.480,41.016,53.223
1587019719.342,28.809,11.719,49.805,32.227,20.508
1587019719.346,-34.668,10.254,55.176,-18.555,25.879
1587019719.350,-44.922,8.301,58.105,-26.855,35.156
1587019719.354,15.625,2.441,59.570,26.855,33.691
1587019719.358,25.879,0.000,54.199,43.457,46.387
1587019719.362,-28.809,2.930,51.758,-5.371,80.566
1587019719.365,-41.992,5.859,53.223,-26.367,81.055
1587019719.369,-0.977,6.348,54.688,18.555,97.168
1587019719.373,41.504,4.395,53.711,51.758,79.590
1587019719.377,11.230,8.301,55.664,15.137,69.824
1587019719.381,-27.344,13.184,55.664,-20.996,42.480
1587019719.385,16.113,13.672,50.781,10.742,-10.254
1587019719.389,67.871,16.602,54.199,61.035,3.418
1587019719.393,40.039,20.996,53.223,41.504,16.602
1587019719.397,-10.742,23.438,57.617,0.488,13.672
1587019719.401,-0.488,18.555,56.152,9.766,9.766
1587019719.405,55.176,15.137,46.875,51.758,-5.859
1587019719.408,42.480,18.555,46.875,46.387,34.180
1587019719.412,-29.297,22.461,49.805,-14.160,26.367
1587019719.416,-28.320,21.484,50.293,-24.902,21.973
1587019719.420,33.203,22.461,46.387,28.809,38.574
1587019719.424,41.504,26.367,45.898,41.992,55.176
1587019719.428,-24.414,26.855,46.875,-12.695,41.016
1587019719.432,-49.316,25.879,46.387,-44.922,-10.254
1587019719.436,7.812,24.414,46.387,-3.906,17.090
1587019719.440,43.457,26.367,45.898,38.086,28.809
1587019719.444,-6.348,28.320,43.457,6.348,-18.066
1587019719.447,-53.711,28.809,43.457,-34.668,-1.953
1587019719.451,-14.648,28.320,42.969,-8.789,46.875
1587019719.455,49.805,31.738,43.945,45.898,31.250
1587019719.459,33.203,44.434,57.129,41.016,56.641
1587019719.463,-21.973,48.828,66.895,-2.930,62.988
1587019719.467,-13.184,37.109,55.664,-1.465,26.367
1587019719.471,26.367,19.531,34.668,28.809,31.250
1587019719.475,12.695,18.555,33.203,16.602,15.625
1587019719.479,-50.293,34.180,53.223,-39.551,17.090
1587019719.483,-80.566,39.551,57.129,-69.336,-6.348
1587019719.487,-49.316,39.551,45.898,-46.875,14.648
1587019719.490,-48.828,45.410,47.852,-46.387,66.406
1587019719.494,-126.953,50.293,54.688,-111.816,65.430
1587019719.498,-175.781,54.688,57.129,-161.621,63.477
1587019719.502,-154.785,55.176,57.129,-157.227,9.766
1587019719.506,-144.531,51.758,60.547,-145.996,3.906
1587019719.510,-202.148,54.688,68.848,-180.664,33.691
1587019719.514,-243.652,58.105,70.801,-227.539,29.297
1587019719.518,-204.590,54.688,72.266,-203.125,6.348
1587019719.522,-143.555,45.898,73.730,-142.090,10.254
1587019719.526,-144.043,42.480,70.801,-134.766,41.016
1587019719.530,-182.129,42.969,68.359,-163.574,54.199
1587019719.533,-149.902,40.039,62.988,-145.996,55.664
1587019719.537,-61.523,36.133,53.223,-68.359,55.176
1587019719.541,-31.250,35.156,52.246,-25.391,99.609
1587019719.545,-70.801,38.574,48.828,-54.688,89.355
1587019719.549,-76.660,33.691,42.480,-58.105,48.340
1587019719.553,2.930,26.367,38.574,5.859,50.781
1587019719.557,61.523,25.879,33.203,59.082,50.781
1587019719.561,25.391,24.902,32.715,37.598,10.742
1587019719.565,4.883,24.902,29.785,16.602,-23.926
1587019719.569,65.918,22.949,26.367,66.406,-28.320
1587019719.572,128.418,20.020,21.973,121.094,-4.883
1587019719.576,107.422,20.508,18.555,107.422,23.926
1587019719.580,64.941,20.020,22.461,75.195,24.414
1587019719.584,96.680,15.137,21.484,100.586,96.191
1587019719.588,161.133,13.184,21.484,159.668,115.723
1587019719.592,153.809,15.625,20.508,153.320,33.691
1587019719.596,99.121,17.578,19.043,101.562,-0.977
1587019719.600,103.516,20.020,20.020,104.492,15.625
1587019719.604,158.691,17.090,14.160,153.809,30.273
1587019719.608,167.480,18.066,12.695,168.457,29.297
1587019719.612,112.793,22.949,17.578,121.582,56.152
1587019719.615,88.379,21.484,18.555,95.703,88.867
1587019719.619,146.484,22.949,16.113,141.113,13.184
1587019719.623,187.012,28.809,17.090,180.176,-21.484
1587019719.627,138.672,31.738,20.996,140.137,11.719
1587019719.631,89.844,30.762,20.020,93.262,-32.227
1587019719.635,127.930,33.203,18.066,119.629,-15.137
1587019719.639,174.316,28.320,15.625,162.109,58.594
1587019719.643,141.602,23.438,18.066,137.207,39.551
1587019719.647,83.496,25.879,20.508,86.426,24.902
1587019719.651,97.656,25.391,20.020,92.285,-5.371
1587019719.655,166.016,22.949,18.555,141.602,15.625
1587019719.658,154.297,21.973,20.996,142.090,27.832
1587019719.662,87.402,26.855,25.879,88.867,6.348
1587019719.666,84.473,30.762,27.832,77.637,26.367
1587019719.670,137.695,25.391,24.902,124.512,45.410
1587019719.674,153.809,24.902,24.902,143.066,27.832
1587019719.678,94.238,29.297,30.762,94.727,0.000
1587019719.682,58.105,31.250,30.273,63.965,6.348
1587019719.686,107.422,30.762,28.320,102.051,28.320
1587019719.690,139.648,32.227,30.762,140.625,105.957
1587019719.694,93.262,32.227,33.691,102.051,56.152
1587019719.697,46.387,28.320,34.668,57.129,-21.484
1587019719.701,77.148,25.391,32.227,81.543,3.418
1587019719.705,133.301,24.902,32.227,129.395,30.273
1587019719.709,102.539,25.879,35.156,109.863,54.688
1587019719.713,38.574,25.391,33.203,53.711,23.926
1587019719.717,55.176,25.391,32.715,60.059,30.762
1587019719.721,111.816,23.438,29.785,108.887,1.465
1587019719.725,106.445,24.902,26.367,109.863,8.789
1587019719.729,44.434,29.297,31.250,57.129,53.711
1587019719.733,33.691,30.762,30.762,35.645,5.371
1587019719.737,92.285,29.297,26.855,79.590,-1.953
1587019719.740,108.887,30.762,25.879,105.469,44.434
1587019719.744,47.852,30.273,25.879,60.059,62.988
1587019719.748,15.137,32.227,27.344,24.902,80.078
1587019719.752,67.871,29.785,25.879,59.082,87.891
1587019719.756,108.887,26.855,21.484,100.098,100.586
1587019719.760,62.988,31.250,25.879,72.754,98.633
1587019719.764,12.695,35.645,30.273,26.855,8.789
1587019719.768,43.945,37.598,28.320,46.875,20.020
1587019719.772,100.098,32.227,24.902,93.750,47.363
1587019719.776,75.195,28.809,25.391,80.566,16.602
1587019719.780,9.277,34.180,31.738,25.879,21.484
1587019719.783,21.973,34.180,34.180,23.438,-6.348
1587019719.787,84.473,31.250,29.297,72.754,21.484
1587019719.791,82.520,35.156,32.227,83.008,92.285
1587019719.795,29.297,38.574,35.645,33.691,35.156
1587019719.799,26.855,39.062,31.738,20.508,0.488
1587019719.803,77.148,33.203,32.715,70.312,38.086
1587019719.807,79.590,28.320,38.574,87.891,49.316
1587019719.811,10.254,28.809,41.992,30.273,-2.441
1587019719.815,-23.438,29.297,43.457,-6.348,-5.859
1587019719.819,23.926,26.855,42.969,31.250,31.738
1587019719.822,69.336,21.484,41.504,77.148,26.367
1587019719.826,36.621,19.043,44.922,52.734,32.715
1587019719.830,-25.879,20.508,48.828,1.953,5.371
1587019719.834,4.883,20.020,47.852,16.113,-33.691
1587019719.838,73.730,20.020,43.457,70.312,23.926
1587019719.842,53.223,21.973,39.551,59.570,46.387
1587019719.846,-11.230,25.391,39.551,2.441,32.227
1587019719.850,-10.742,24.902,37.598,-6.836,13.672
1587019719.854,58.105,22.461,28.809,40.527,-14.648
1587019719.858,77.148,26.367,30.762,58.594,13.184
1587019719.862,20.508,29.785,39.062,11.719,88.379
1587019719.865,-4.883,28.809,39.062,-16.602,29.785
1587019719.869,43.457,26.855,36.133,24.414,-25.879
1587019719.873,77.148,25.391,37.109,63.965,10.254
1587019719.877,27.832,27.344,42.969,32.227,53.711
1587019719.881,-20.020,28.320,42.969,-8.789,17.090
1587019719.885,18.066,27.344,36.621,19.043,-36.133
1587019719.889,65.918,27.344,36.621,70.312,-6.348
1587019719.893,34.180,29.297,39.551,47.852,15.137
1587019719.897,-20.020,32.227,41.016,1.465,13.672
1587019719.901,2.930,32.227,44.434,15.625,34.180
1587019719.905,61.523,27.832,39.062,62.500,65.918
1587019719.908,52.246,29.785,37.598,62.012,90.332
1587019719.912,-5.859,33.203,40.527,10.254,52.734
1587019719.916,-10.254,31.738,38.086,-2.930,-3.418
1587019719.920,59.082,27.832,35.645,48.828,28.809
1587019719.924,84.961,30.273,37.109,71.777,28.809
1587019719.928,22.949,36.621,38.574,25.391,1.465
1587019719.932,-4.395,38.574,36.133,-6.348,-16.602
1587019719.936,54.199,37.109,34.668,34.668,55.664
1587019719.940,97.168,37.598,35.645,79.102,116.211
1587019719.944,56.152,37.109,33.203,45.898,62.500
1587019719.947,6.348,35.645,35.156,2.441,41.992
1587019719.951,38.086,32.715,35.156,27.832,-21.484
1587019719.955,93.750,30.273,31.738,78.125,-38.086
1587019719.959,65.918,32.715,32.227,60.547,16.113
1587019719.963,1.465,34.668,36.621,8.301,22.949
1587019719.967,14.648,31.250,37.109,9.277,68.848
1587019719.971,71.289,28.809,31.250,53.711,24.414
1587019719.975,73.730,30.762,31.250,60.059,-13.184
1587019719.979,14.160,34.180,37.109,9.766,59.570
1587019719.983,1.465,36.621,37.598,-6.836,49.805
1587019719.987,62.988,35.156,34.668,40.527,23.926
1587019719.990,84.473,34.668,32.715,66.406,42.480
1587019719.994,25.879,36.133,34.180,16.113,28.809
1587019719.998,-9.766,36.621,35.156,-16.113,1.465
1587019720.002,39.551,33.691,34.668,28.320,27.344
1587019720.006,79.590,33.203,35.156,70.801,80.566
1587019720.010,35.156,36.621,32.715,38.574,21.973
1587019720.014,-8.301,40.039,33.691,-5.371,-12.695
1587019720.018,25.391,37.109,36.621,16.113,61.035
1587019720.022,78.125,34.180,33.203,65.918,73.730
1587019720.026,55.176,37.109,32.227,55.176,24.902
1587019720.030,-10.254,39.062,36.133,2.441,20.996
1587019720.033,4.395,35.645,36.133,1.953,11.719
1587019720.037,66.406,31.250,32.715,52.734,28.809
1587019720.041,65.430,28.809,36.621,64.941,53.223
1587019720.045,6.348,30.273,41.504,17.578,38.086
1587019720.049,-10.254,29.297,40.527,-1.953,-14.648
1587019720.053,44.922,27.832,38.574,43.945,6.836
1587019720.057,70.312,29.785,37.109,73.242,74.707
1587019720.061,23.438,28.809,35.156,30.273,35.645
1587019720.065,-14.648,25.879,33.203,-7.324,22.461
1587019720.069,24.414,25.391,29.297,24.902,21.973
1587019720.072,68.359,24.902,30.273,66.406,-19.043
1587019720.076,42.480,27.344,35.645,42.969,-7.324
1587019720.080,-1.953,30.762,38.574,-0.488,44.434
1587019720.084,21.973,29.785,38.086,10.742,29.785
1587019720.088,82.520,29.297,38.086,65.918,42.480
1587019720.092,69.824,29.785,38.086,63.965,88.867
1587019720.096,5.859,35.645,39.062,11.719,46.875
1587019720.100,5.859,37.109,38.086,6.348,50.781
1587019720.104,63.477,31.738,31.738,54.688,96.191
1587019720.108,74.219,33.691,32.227,73.730,66.406
1587019720.112,16.113,35.156,36.133,25.391,24.414
1587019720.115,-1.465,35.156,37.109,-2.930,33.691
1587019720.119,54.199,34.180,38.574,42.480,48.340
1587019720.123,83.008,37.109,41.016,79.590,40.039
1587019720.127,24.902,39.551,39.551,35.645,39.062
1587019720.131,-22.461,35.645,37.598,-10.254,32.227
1587019720.135,21.484,32.227,37.598,16.113,36.621
1587019720.139,72.266,30.762,38.086,63.965,0.000
1587019720.143,47.852,33.203,38.086,49.316,-10.742
1587019720.147,-2.930,36.621,37.598,0.488,22.461
1587019720.151,11.719,33.691,35.645,8.789,39.551
1587019720.155,71.777,32.227,35.156,66.406,25.391
1587019720.158,57.617,31.738,39.551,67.383,-21.484
1587019720.162,-13.184,33.691,42.969,8.789,-10.254
1587019720.166,-17.578,36.133,42.480,-1.465,54.688
1587019720.170,38.574,33.203,38.574,53.223,66.406
1587019720.174,62.012,32.227,37.598,76.172,41.504
1587019720.178,11.719,34.180,38.574,31.250,6.348
1587019720.182,-10.742,34.668,39.551,2.441,10.254
1587019720.186,45.410,35.156,39.551,43.457,-25.391
1587019720.190,79.102,29.785,38.574,83.008,10.254
1587019720.194,34.180,27.832,41.992,48.828,68.359
1587019720.197,-14.648,29.785,44.922,3.906,23.926
1587019720.201,17.090,25.879,40.527,24.414,8.789
1587019720.205,70.801,22.461,38.086,72.754,16.113
1587019720.209,42.969,24.414,40.039,56.641,32.227
1587019720.213,-10.742,28.809,44.434,4.395,33.203
1587019720.217,11.230,23.926,43.945,7.812,-9.277
1587019720.221,68.359,18.066,36.133,54.688,-5.859
1587019720.225,66.406,22.461,37.598,63.477,47.852
1587019720.229,5.859,26.855,41.992,12.695,52.246
1587019720.233,-4.883,23.438,40.039,-9.277,32.227
1587019720.237,53.223,23.438,34.180,40.039,37.598
1587019720.240,76.172,25.391,33.203,70.801,35.156
1587019720.244,27.344,29.785,39.062,29.297,45.898
1587019720.248,-5.371,34.180,41.504,-4.395,42.969
1587019720.252,38.086,33.203,36.133,26.367,36.621
1587019720.256,83.008,32.715,32.227,62.012,-14.648
1587019720.260,41.992,36.133,36.133,36.621,-8.301
1587019720.264,-10.742,38.086,39.551,-2.930,25.879
1587019720.268,12.207,35.645,37.598,14.160,-11.719
1587019720.272,69.336,29.785,31.250,65.430,8.301
1587019720.276,55.664,31.250,30.273,57.617,24.414
1587019720.280,-6.348,34.180,36.133,5.371,51.270
1587019720.283,-2.930,33.691,36.133,7.324,105.469
1587019720.287,64.941,34.180,30.762,61.035,23.438
1587019720.291,72.754,36.133,34.180,75.684,-7.812
1587019720.295,11.230,38.574,37.109,27.344,48.340
1587019720.299,-1.953,39.551,34.668,7.812,51.270
1587019720.303,58.105,36.621,30.273,52.246,33.203
1587019720.307,79.590,33.203,27.344,77.637,-10.742
1587019720.311,20.020,34.668,29.785,36.133,6.836
1587019720.315,-7.324,36.133,32.227,-2.930,7.324
1587019720.319,43.457,34.180,28.809,28.320,41.992
1587019720.322,84.473,33.691,25.879,72.754,100.098
1587019720.326,46.387,36.133,24.902,42.480,50.293
1587019720.330,-1.953,40.039,33.203,-4.883,10.254
1587019720.334,27.832,40.039,34.180,7.324,44.434
1587019720.338,77.148,36.133,27.832,56.152,41.016
1587019720.342,60.547,34.180,29.297,52.734,6.348
1587019720.346,-7.324,36.621,35.156,3.906,7.324
1587019720.350,-10.254,39.551,35.645,-1.465,-12.207
1587019720.354,61.523,34.668,25.391,46.387,-8.301
1587019720.358,75.684,33.691,26.855,62.500,38.086
1587019720.362,16.113,40.039,34.180,17.578,-5.859
1587019720.365,-8.301,38.086,34.180,-3.906,-11.719
1587019720.369,34.180,35.645,33.203,38.574,34.668
1587019720.373,73.730,36.621,34.180,70.801,-10.254
1587019720.377,35.156,35.645,35.645,31.738,0.000
1587019720.381,-12.207,35.156,37.109,-11.719,0.488
1587019720.385,18.555,32.715,37.109,17.578,-20.996
1587019720.389,65.430,29.785,34.180,63.965,23.926
1587019720.393,45.898,30.762,37.109,43.457,43.457
1587019720.397,-1.953,32.227,37.598,-1.465,44.434
1587019720.401,13.672,29.297,33.691,11.230,41.504
1587019720.405,74.219,28.320,32.715,65.430,0.977
1587019720.408,66.406,30.273,33.691,68.848,66.406
1587019720.412,7.812,31.250,37.109,17.578,69.824
1587019720.416,0.488,31.250,37.598,7.812,-71.777
1587019720.420,57.617,30.273,37.598,59.570,-74.707
1587019720.424,78.125,29.297,37.598,79.102,-2.930
1587019720.428,14.160,34.668,37.598,32.715,29.785
1587019720.432,-30.273,32.227,37.598,3.418,64.453
1587019720.436,36.133,29.297,36.133,40.527,107.422
1587019720.440,92.773,29.297,35.156,76.172,101.562
1587019720.444,40.527,30.762,34.668,42.480,38.574
1587019720.447,-8.301,34.668,36.621,1.953,-1.465
1587019720.451,25.879,34.668,34.668,24.414,-4.883
1587019720.455,83.984,33.203,30.762,70.312,7.324
1587019720.459,63.965,34.180,35.156,62.500,25.879
1587019720.463,4.395,35.645,39.062,12.695,7.324
1587019720.467,12.695,31.738,37.109,8.301,18.555
1587019720.471,67.871,31.250,35.156,61.035,32.227
1587019720.475,54.199,31.250,30.273,68.848,44.922
1587019720.479,-5.859,31.738,29.785,13.672,64.941
1587019720.483,-4.395,33.691,35.156,-3.906,55.664
1587019720.487,56.641,34.180,34.668,45.898,47.852
1587019720.490,70.801,35.645,34.180,69.336,48.828
1587019720.494,23.438,36.133,37.109,22.461,20.996
1587019720.498,-3.418,38.574,35.645,-6.836,-22.949
1587019720.502,41.504,37.109,29.785,28.320,-39.551
1587019720.506,82.520,38.086,31.250,74.219,15.625
1587019720.510,31.250,40.527,32.227,51.270,24.902
1587019720.514,-20.996,36.621,30.273,-0.977,27.344
1587019720.518,22.461,36.621,30.273,17.090,24.414
1587019720.522,77.148,36.133,29.785,71.777,-9.766
1587019720.526,49.805,36.133,33.203,60.547,-41.992
1587019720.530,-6.836,35.645,35.645,7.812,-58.105
1587019720.533,5.859,32.715,35.156,6.836,8.301
1587019720.537,71.289,31.738,37.109,60.547,70.801
1587019720.541,72.754,33.203,38.086,72.754,83.984
1587019720.545,3.906,33.691,39.062,18.066,52.246
1587019720.549,-17.090,35.156,37.598,-6.348,68.848
1587019720.553,46.387,32.227,36.133,39.062,65.430
1587019720.557,80.078,33.691,35.156,68.359,42.480
1587019720.561,29.297,37.109,30.762,24.902,39.551
1587019720.565,-5.859,39.551,32.715,-11.230,49.316
1587019720.569,38.086,38.574,32.715,20.508,3.906
1587019720.572,83.008,34.180,32.715,65.430,8.789
1587019720.576,43.457,38.086,36.621,50.781,78.613
1587019720.580,-6.836,40.039,39.551,8.301,117.676
1587019720.584,24.414,37.109,41.504,21.973,61.523
1587019720.588,75.684,33.691,38.086,75.195,30.762
1587019720.592,53.711,34.180,35.645,72.266,58.105
1587019720.596,-3.906,36.133,33.691,14.648,20.996
1587019720.600,0.488,36.621,33.203,8.789,44.434
1587019720.604,56.641,38.086,31.250,72.266,34.180
1587019720.608,81.543,40.039,33.203,98.145,43.457
1587019720.612,15.625,38.574,37.598,28.809,53.711
1587019720.615,-34.180,33.203,40.039,-20.020,38.086
1587019720.619,7.324,25.879,42.969,15.137,42.969
1587019720.623,45.410,20.508,42.480,50.781,64.941
1587019720.627,-1.953,20.508,45.898,16.602,94.238
1587019720.631,-54.688,25.879,53.223,-36.621,32.715
1587019720.635,-20.996,19.531,50.293,-20.996,12.207
1587019720.639,16.602,13.184,49.316,28.320,69.824
1587019720.643,-3.906,15.137,53.223,12.695,73.242
1587019720.647,-51.270,14.648,53.223,-34.180,57.617
1587019720.651,-28.320,15.137,51.270,-20.996,34.668
1587019720.655,36.133,14.160,48.828,34.180,24.902
1587019720.658,34.668,19.043,49.805,42.969,28.320
1587019720.662,-18.066,23.926,55.664,-3.418,39.551
1587019720.666,-32.715,20.020,51.758,-12.695,60.547
1587019720.670,30.273,20.996,47.363,43.945,102.051
1587019720.674,69.824,24.902,52.246,73.242,103.027
1587019720.678,19.531,23.438,51.270,29.785,38.574
1587019720.682,-10.742,22.949,51.270,3.906,-13.184
1587019720.686,36.133,20.996,48.828,44.922,-18.555
1587019720.690,82.520,18.555,47.852,84.473,12.207
1587019720.694,45.410,23.926,54.688,50.781,3.418
1587019720.697,-16.602,27.344,56.641,3.418,-11.719
1587019720.701,14.160,24.414,51.758,23.438,-27.344
1587019720.705,74.707,26.855,49.805,78.613,36.133
1587019720.709,48.340,30.762,51.758,68.359,22.949
1587019720.713,-12.695,26.855,48.340,11.719,17.578
1587019720.717,2.930,26.855,43.945,14.160,62.012
1587019720.721,70.801,29.297,41.016,67.383,45.410
1587019720.725,74.707,28.809,38.574,72.754,13.672
1587019720.729,3.418,29.785,41.016,20.996,21.973
1587019720.733,-8.301,29.297,38.574,0.977,23.438
1587019720.737,69.336,25.879,34.668,49.316,34.180
1587019720.740,92.285,26.367,35.645,77.148,52.246
1587019720.744,37.109,29.785,41.504,34.180,38.086
1587019720.748,-3.906,29.785,43.457,0.488,16.113
1587019720.752,21.484,25.391,40.527,32.715,7.324
1587019720.756,66.406,23.438,36.621,73.242,19.043
1587019720.760,31.250,26.367,34.668,49.316,20.020
1587019720.764,-14.160,31.250,37.598,7.324,25.391
1587019720.768,11.230,29.297,38.574,18.066,38.086
1587019720.772,64.453,26.367,35.156,66.406,49.805
1587019720.776,62.500,29.785,35.156,62.500,17.090
1587019720.780,1.465,31.738,36.133,8.789,16.602
1587019720.783,2.930,32.227,36.621,3.418,23.926
1587019720.787,66.895,30.273,33.203,55.664,18.555
1587019720.791,78.613,30.762,32.715,66.406,22.949
1587019720.795,6.348,32.715,37.109,13.672,10.742
1587019720.799,-27.832,32.227,37.109,-8.301,59.082
1587019720.803,34.180,30.273,30.273,30.762,69.336
1587019720.807,56.641,30.762,31.738,58.105,-8.301
1587019720.811,-1.465,32.715,37.109,19.043,-13.184
1587019720.815,-25.879,31.738,31.738,-20.020,4.883
1587019720.819,23.926,32.227,30.762,10.742,-7.812
1587019720.822,74.219,32.227,31.738,57.617,21.973
1587019720.826,37.598,31.738,30.273,38.574,13.184
1587019720.830,-24.902,32.227,33.691,-5.859,40.039
1587019720.834,4.395,31.738,33.203,6.348,10.254
1587019720.838,71.289,29.785,33.203,57.617,12.207
1587019720.842,53.223,30.273,34.180,54.199,74.219
1587019720.846,-18.066,31.250,34.668,4.883,47.363
1587019720.850,-17.578,27.344,33.691,-1.465,64.453
1587019720.854,48.828,25.391,31.250,48.340,32.715
1587019720.858,61.523,27.344,28.809,68.359,29.297
1587019720.862,3.418,31.738,34.180,23.438,12.695
1587019720.865,-22.949,33.203,38.574,0.488,-10.254
1587019720.869,27.344,29.297,34.180,37.598,35.645
1587019720.873,68.359,31.738,32.715,66.895,44.434
1587019720.877,31.738,35.645,34.180,32.227,14.648
1587019720.881,-10.742,35.645,36.621,-7.812,42.969
1587019720.885,24.902,31.738,35.156,13.672,41.016
1587019720.889,71.289,28.320,31.738,61.035,70.801
1587019720.893,43.457,29.785,35.156,42.480,105.469
1587019720.897,-13.184,30.762,39.551,-7.324,-39.062
1587019720.901,-4.395,29.297,41.016,5.371,-54.688
1587019720.905,63.965,29.785,38.086,60.547,14.648
1587019720.908,62.012,30.762,35.156,62.012,22.949
1587019720.912,-11.719,32.227,38.086,12.695,27.344
1587019720.916,-10.742,34.180,38.086,2.441,0.000
1587019720.920,52.246,31.250,33.203,52.734,36.621
1587019720.924,73.730,29.297,33.203,77.148,34.668
1587019720.928,18.066,32.227,34.668,30.273,1.953
1587019720.932,-15.625,30.762,34.668,-1.953,17.090
1587019720.936,45.410,30.762,32.227,41.992,9.277
1587019720.940,89.355,31.738,30.273,83.496,35.156
1587019720.944,34.668,31.738,33.203,50.781,43.945
1587019720.947,-27.344,33.691,31.738,4.395,12.207
1587019720.951,8.301,33.691,27.344,22.949,31.250
1587019720.955,75.195,33.691,25.391,73.242,37.598
1587019720.959,54.199,34.668,23.926,58.105,61.523
1587019720.963,-2.441,38.086,26.855,2.441,26.855
1587019720.967,9.277,36.621,27.344,4.395,-8.301
1587019720.971,64.453,35.645,26.855,53.711,42.969
1587019720.975,79.102,37.598,29.785,62.988,22.461
1587019720.979,22.461,37.109,34.180,16.602,24.414
1587019720.983,3.418,34.668,34.668,2.441,36.621
1587019720.987,62.500,32.715,34.668,49.805,31.738
1587019720.990,82.031,30.273,33.691,77.637,50.781
1587019720.994,20.020,33.691,35.645,38.086,61.523
1587019720.998,-5.371,36.133,38.086,5.371,47.363
1587019721.002,37.598,33.691,33.203,39.551,37.598
1587019721.006,77.148,32.715,32.227,89.355,55.176
1587019721.010,41.504,33.203,34.668,64.941,63.477
1587019721.014,3.418,35.156,37.598,14.160,-17.090
1587019721.018,39.551,30.762,35.156,32.715,-17.578
1587019721.022,83.984,27.832,34.668,81.543,-6.348
1587019721.026,67.871,30.762,37.598,72.266,9.277
1587019721.030,4.395,32.227,38.574,16.602,5.859
1587019721.033,10.254,30.273,36.621,8.301,-9.277
1587019721.037,65.430,26.367,32.715,57.129,15.137
1587019721.041,44.434,27.832,35.645,68.359,34.668
1587019721.045,-2.930,31.738,40.039,20.020,64.453
1587019721.049,-9.766,31.250,37.109,0.488,110.352
1587019721.053,41.992,32.227,37.109,42.969,67.871
1587019721.057,79.102,33.691,35.156,69.336,49.805
1587019721.061,24.414,37.109,34.668,26.855,75.195
1587019721.065,-20.020,41.016,37.598,-13.184,6.348
1587019721.069,16.602,36.621,34.180,15.625,-3.906
1587019721.072,57.129,31.250,34.180,59.082,59.082
1587019721.076,13.672,35.645,41.016,30.273,28.809
1587019721.080,-53.711,33.203,46.875,-27.832,38.086
1587019721.084,-44.434,28.320,45.898,-30.273,55.664
1587019721.088,1.953,27.344,45.898,6.836,55.176
1587019721.092,-15.137,33.203,59.570,-3.906,58.105
1587019721.096,-62.500,35.645,72.266,-55.664,28.320
1587019721.100,-82.520,25.879,66.895,-80.078,26.367
1587019721.104,-49.316,29.785,72.266,-53.223,24.902
1587019721.108,-36.133,28.320,81.543,-43.945,35.156
1587019721.112,-113.281,28.320,79.102,-107.910,88.379
1587019721.115,-164.062,29.297,76.172,-165.039,61.523
1587019721.119,-119.141,25.879,84.473,-133.301,5.371
1587019721.123,-81.055,30.273,100.586,-89.844,39.551
1587019721.127,-126.953,35.156,104.004,-134.766,33.691
1587019721.131,-209.961,27.832,97.656,-201.660,-20.508
1587019721.135,-190.430,17.578,90.332,-183.594,20.508
1587019721.139,-123.047,27.344,87.402,-132.324,35.645
1587019721.143,-152.344,39.551,94.238,-158.203,56.641
1587019721.147,-233.398,41.016,104.492,-227.051,38.086
1587019721.151,-227.539,39.551,106.445,-224.609,-20.996
1587019721.155,-134.766,38.574,102.539,-154.297,3.906
1587019721.158,-134.277,36.621,100.586,-146.484,12.207
1587019721.162,-192.871,35.156,98.633,-187.500,20.996
1587019721.166,-179.199,32.715,97.168,-173.828,27.344
1587019721.170,-105.469,29.785,92.285,-111.328,44.434
1587019721.174,-70.312,27.344,84.473,-70.801,75.195
1587019721.178,-102.539,27.344,76.660,-87.402,30.273
1587019721.182,-105.957,26.855,75.195,-91.797,-24.414
1587019721.186,-29.785,20.996,69.336,-32.715,61.523
1587019721.190,27.344,19.043,58.594,26.367,101.074
1587019721.194,4.395,23.438,52.734,10.742,51.758
1587019721.197,-20.508,25.391,50.293,-16.602,54.688
1587019721.201,23.926,19.043,41.016,19.043,41.504
1587019721.205,89.844,15.625,34.180,79.590,41.504
1587019721.209,65.430,20.020,30.273,81.055,70.312
1587019721.213,17.090,21.484,23.926,37.598,28.320
1587019721.217,55.664,17.090,20.020,47.852,-24.902
1587019721.221,132.812,16.602,17.090,117.676,5.371
1587019721.225,148.438,17.578,11.719,142.090,61.035
1587019721.229,94.727,20.020,11.230,104.004,40.039
1587019721.233,83.496,21.484,6.836,93.262,-7.812
1587019721.237,155.273,22.949,0.000,151.855,13.184
1587019721.240,190.918,30.762,-2.930,187.988,9.277
1587019721.244,136.719,32.715,-4.395,140.625,-38.086
1587019721.248,103.516,30.762,-6.348,100.586,-22.949
1587019721.252,153.809,29.785,-6.836,132.324,-60.547
1587019721.256,204.590,30.762,-8.789,174.316,-4.883
1587019721.260,168.457,32.227,-9.277,149.902,41.992
1587019721.264,116.699,31.738,-5.859,107.422,34.668
1587019721.268,131.348,31.250,-2.930,126.953,52.734
1587019721.272,179.688,31.738,-3.418,177.734,41.016
1587019721.276,161.621,37.109,-2.930,169.434,86.426
1587019721.280,94.238,37.109,-1.953,112.305,119.141
1587019721.283,95.703,36.621,-2.930,101.074,49.316
1587019721.287,152.832,38.086,-4.395,154.297,10.742
1587019721.291,154.297,40.039,-3.906,169.434,98.633
1587019721.295,104.492,42.480,0.000,116.699,89.355
1587019721.299,81.055,42.969,1.953,92.773,-0.488
1587019721.303,128.418,41.016,0.977,135.742,20.508
1587019721.307,167.480,41.992,2.441,170.410,-5.371
1587019721.311,116.699,44.434,8.301,128.418,12.207
1587019721.315,78.125,42.480,9.277,87.402,-14.160
1587019721.319,116.211,42.480,7.812,120.117,-9.766
1587019721.322,163.086,44.922,9.277,168.457,63.965
1587019721.326,132.324,48.340,10.254,140.625,43.457
1587019721.330,67.871,51.758,10.742,87.891,-17.578
1587019721.334,86.914,47.852,12.695,94.238,-49.316
1587019721.338,144.531,40.527,12.695,136.719,-6.348
1587019721.342,122.070,35.156,15.137,125.977,12.207
1587019721.346,53.711,37.598,18.066,67.383,-20.508
1587019721.350,48.340,39.551,20.996,53.223,28.809
1587019721.354,111.816,38.574,22.949,101.074,81.543
1587019721.358,124.023,35.645,24.902,117.188,59.082
1587019721.362,59.570,35.645,26.367,65.918,56.641
1587019721.365,35.156,37.598,26.855,36.621,66.895
1587019721.369,83.496,36.133,23.926,74.219,41.504
1587019721.373,122.559,38.574,22.949,109.863,38.086
1587019721.377,77.637,38.574,24.902,73.242,40.527
1587019721.381,31.250,41.016,24.902,33.203,37.109
1587019721.385,68.359,37.109,25.391,59.082,78.613
1587019721.389,116.211,33.203,24.414,108.398,117.676
1587019721.393,85.938,36.621,28.809,93.262,85.449
1587019721.397,24.902,38.086,32.227,39.062,57.129
1587019721.401,38.086,36.133,28.809,41.992,77.637
1587019721.405,88.867,31.738,27.832,91.797,46.875
1587019721.408,83.008,33.691,31.250,97.656,33.203
1587019721.412,26.855,38.086,34.180,48.828,42.969
1587019721.416,17.090,35.645,30.273,35.156,-23.438
1587019721.420,74.707,31.250,25.391,77.637,-44.434
1587019721.424,99.121,33.203,26.855,101.074,16.602
1587019721.428,40.527,38.086,30.273,55.664,53.711
1587019721.432,0.000,38.086,28.320,15.625,21.973
1587019721.436,58.594,38.086,26.855,48.340,-24.414
1587019721.440,103.516,36.621,26.855,89.355,27.344
1587019721.444,54.199,36.133,28.809,59.570,37.109
1587019721.447,4.883,37.109,30.762,8.789,-34.180
1587019721.451,37.598,35.156,29.297,22.461,-43.457
1587019721.455,86.914,35.156,22.949,68.359,-36.133
1587019721.459,63.965,37.109,23.438,55.664,-19.531
1587019721.463,1.953,39.551,28.320,5.859,13.672
1587019721.467,14.160,35.645,26.367,8.789,22.949
1587019721.471,77.637,33.691,23.438,62.500,63.965
1587019721.475,79.102,35.156,26.367,73.242,36.133
1587019721.479,15.625,35.156,26.855,25.879,-22.949
1587019721.483,-2.441,35.645,25.391,11.230,-27.832
1587019721.487,59.570,33.691,27.832,59.082,3.906
1587019721.490,83.984,30.273,28.809,85.938,42.969
1587019721.494,31.250,33.203,28.809,39.551,42.969
1587019721.498,-2.441,36.133,34.180,2.930,-9.766
1587019721.502,41.992,31.250,32.227,35.645,41.992
1587019721.506,86.426,30.273,29.785,77.148,115.723
1587019721.510,42.969,33.691,32.715,50.293,60.059
1587019721.514,-13.672,34.180,34.668,1.465,23.926
1587019721.518,15.625,34.180,33.203,14.160,43.945
1587019721.522,76.660,33.203,31.738,68.359,64.941
1587019721.526,57.129,35.156,34.180,64.453,51.270
1587019721.530,-11.230,36.133,34.668,7.812,16.602
1587019721.533,-1.465,32.227,29.297,0.977,-19.531
1587019721.537,60.059,28.320,28.809,53.711,11.230
1587019721.541,63.477,28.809,31.250,69.824,57.129
1587019721.545,6.348,32.715,29.297,22.461,44.922
1587019721.549,-19.043,33.203,29.297,-4.883,70.801
1587019721.553,34.180,32.715,28.320,41.016,107.422
1587019721.557,68.848,33.203,30.762,82.031,47.363
1587019721.561,20.020,35.156,35.645,40.527,55.664
1587019721.565,-16.602,36.621,38.574,-0.977,14.160
1587019721.569,22.949,30.273,35.645,29.297,-34.180
1587019721.572,64.453,28.320,30.762,71.777,25.391
1587019721.576,40.527,32.715,34.180,49.805,-20.020
1587019721.580,-9.277,32.227,35.156,-1.953,37.598
1587019721.584,10.742,29.297,33.203,7.812,-8.301
1587019721.588,70.312,28.320,32.715,64.941,-100.586
1587019721.592,58.105,27.832,33.691,68.848,0.977
1587019721.596,-3.906,32.715,36.133,15.625,28.809
1587019721.600,-5.371,35.156,38.086,4.395,9.277
1587019721.604,51.758,30.273,34.180,53.711,59.082
1587019721.608,64.453,29.297,34.180,72.266,88.379
1587019721.612,0.488,27.832,37.109,18.066,25.391
1587019721.615,-23.438,24.902,33.691,-16.113,-14.160
1587019721.619,33.203,25.879,31.738,28.809,-0.977
1587019721.623,66.895,22.949,34.668,66.406,43.457
1587019721.627,20.996,26.367,39.062,31.738,86.914
1587019721.631,-27.832,29.297,37.109,-8.789,-3.906
1587019721.635,13.672,27.832,33.691,15.625,-66.895
1587019721.639,71.289,26.855,33.203,67.383,36.133
1587019721.643,44.434,29.297,36.621,56.641,97.168
1587019721.647,-12.695,30.273,40.039,12.207,35.645
1587019721.651,1.953,26.855,34.668,17.578,25.879
1587019721.655,64.941,25.879,29.785,73.242,41.504
1587019721.658,61.035,31.250,35.156,75.684,70.801
1587019721.662,2.441,35.645,38.574,15.137,82.031
1587019721.666,-8.301,29.785,35.645,-5.371,44.922
1587019721.670,42.969,25.391,32.227,41.992,57.617
1587019721.674,75.684,29.297,31.738,70.312,51.270
1587019721.678,27.344,31.250,32.227,25.879,24.414
1587019721.682,-7.324,29.297,32.715,-7.812,25.879
1587019721.686,43.457,26.855,30.273,29.297,49.316
1587019721.690,84.473,27.344,26.855,74.219,85.449
1587019721.694,50.293,31.738,27.344,49.805,87.891
1587019721.697,-6.348,33.203,30.762,5.859,64.453
1587019721.701,16.602,30.762,28.320,15.625,44.922
1587019721.705,78.125,29.785,28.320,60.547,1.953
1587019721.709,52.246,34.180,32.227,53.223,-25.879
1587019721.713,-4.883,38.086,35.156,0.977,-4.395
1587019721.717,8.789,34.668,36.133,1.953,20.508
1587019721.721,65.918,29.297,32.227,57.617,57.617
1587019721.725,69.824,32.227,38.086,74.707,51.270
1587019721.729,7.324,36.133,42.969,28.809,71.777
1587019721.733,-5.371,32.715,38.574,7.324,74.707
1587019721.737,61.035,31.250,33.203,48.340,62.500
1587019721.740,91.797,33.203,31.738,82.520,35.645
1587019721.744,41.504,39.062,34.180,43.457,-8.301
1587019721.748,8.301,40.039,30.762,1.953,-23.438
1587019721.752,54.688,33.203,27.832,33.691,-26.367
1587019721.756,99.121,32.715,29.785,81.543,16.113
1587019721.760,53.711,37.109,34.668,57.129,22.461
1587019721.764,-1.953,35.645,40.039,9.277,21.973
1587019721.768,24.902,34.668,39.551,22.461,68.848
1587019721.772,74.707,34.668,38.086,70.801,12.695
1587019721.776,63.477,35.645,38.086,64.453,-6.348
1587019721.780,3.418,36.621,39.551,12.695,-2.930
1587019721.783,3.906,33.203,35.645,10.254,-46.387
1587019721.787,62.012,30.762,31.738,61.523,8.789
1587019721.791,70.312,29.785,34.180,75.684,42.480
1587019721.795,9.766,32.227,39.062,21.973,37.598
1587019721.799,-12.695,34.180,37.598,-4.395,27.832
1587019721.803,42.969,29.785,33.203,36.133,70.801
1587019721.807,77.637,30.762,35.645,69.824,67.871
1587019721.811,28.809,35.156,38.086,41.016,5.371
1587019721.815,-4.883,35.645,35.156,2.441,-54.688
1587019721.819,38.086,36.133,31.738,28.809,-0.977
1587019721.822,86.914,37.109,30.273,78.125,59.082
1587019721.826,55.176,37.109,29.297,59.082,75.195
1587019721.830,2.441,37.598,33.691,9.277,29.785
1587019721.834,32.715,39.062,35.645,19.043,-30.273
1587019721.838,87.402,37.109,30.762,71.289,7.324
1587019721.842,73.730,35.156,30.273,69.824,-0.977
1587019721.846,14.160,39.551,35.645,15.625,10.742
1587019721.850,5.371,42.969,38.086,8.301,28.320
1587019721.854,64.453,40.527,35.645,54.199,-9.277
1587019721.858,80.078,36.621,33.203,72.266,31.250
1587019721.862,20.508,36.133,34.180,25.391,71.777
1587019721.865,-7.812,36.621,34.668,-7.324,72.266
1587019721.869,39.062,35.156,33.691,30.273,64.453
1587019721.873,77.148,34.668,31.250,67.871,55.176
1587019721.877,33.691,37.109,32.227,36.621,33.203
1587019721.881,-16.602,37.109,36.621,-9.277,4.395
1587019721.885,17.578,35.645,35.645,15.625,4.883
1587019721.889,73.242,35.645,32.715,70.312,-7.324
1587019721.893,45.898,35.156,33.203,49.316,3.418
1587019721.897,-7.324,34.180,33.203,-2.930,-21.973
1587019721.901,8.301,32.715,30.273,5.859,-45.898
1587019721.905,63.965,33.203,31.250,56.152,-5.371
1587019721.908,60.059,37.109,32.227,58.594,81.543
1587019721.912,-0.488,40.039,32.227,6.836,45.898
1587019721.916,-11.719,39.062,35.156,-4.395,-16.113
1587019721.920,45.898,34.180,32.227,44.434,105.957
1587019721.924,69.336,33.691,25.879,71.289,59.570
1587019721.928,16.602,37.109,29.785,25.879,18.555
1587019721.932,-11.230,35.645,33.203,-11.719,38.086
1587019721.936,46.387,33.691,29.297,22.949,-3.906
1587019721.940,91.797,35.156,29.297,63.477,49.805
1587019721.944,48.340,37.598,33.203,33.691,73.242
1587019721.947,-12.207,39.062,34.180,-9.766,55.176
1587019721.951,3.906,40.527,31.738,11.230,96.191
1587019721.955,63.477,38.574,24.414,63.477,37.598
1587019721.959,51.758,41.504,28.809,57.129,-7.324
1587019721.963,-11.230,41.016,32.227,3.418,19.043
1587019721.967,-6.836,35.645,30.273,2.441,48.340
1587019721.971,50.293,33.203,32.715,56.152,43.457
1587019721.975,56.152,34.180,35.645,69.336,33.203
1587019721.979,-5.371,37.598,38.086,21.484,6.348
1587019721.983,-17.578,36.133,40.039,1.465,-17.090
1587019721.987,46.387,30.273,34.668,47.852,-2.441
1587019721.990,67.871,26.855,34.668,77.637,64.453
1587019721.994,21.973,31.250,37.598,34.668,45.898
1587019721.998,-9.277,35.645,36.133,-5.371,40.039
1587019722.002,29.297,31.738,31.250,25.391,5.371
1587019722.006,71.289,30.273,26.855,71.289,9.766
1587019722.010,31.250,31.250,28.809,43.945,67.871
1587019722.014,-23.926,30.762,31.250,-10.254,39.062
1587019722.018,5.371,29.297,32.715,7.324,34.668
1587019722.022,66.895,27.344,33.203,66.406,63.965
1587019722.026,48.340,29.785,34.668,61.035,84.961
1587019722.030,-14.648,33.203,38.086,2.930,61.035
1587019722.033,-16.602,33.691,36.133,-5.371,31.738
1587019722.037,55.664,33.691,30.762,50.781,-16.602
1587019722.041,73.242,36.133,30.273,65.430,-14.648
1587019722.045,12.207,39.551,33.203,16.113,54.688
1587019722.049,-5.371,39.551,35.156,-6.836,72.754
1587019722.053,52.246,34.668,30.762,35.645,66.895
1587019722.057,83.496,32.715,26.367,70.801,60.059
1587019722.061,39.551,39.062,30.273,39.551,55.664
1587019722.065,0.000,39.062,33.203,0.488,3.906
1587019722.069,36.133,34.668,30.762,25.879,13.672
1587019722.072,83.008,34.668,28.320,72.754,8.301
1587019722.076,53.223,34.180,33.691,56.152,-3.906
1587019722.080,-3.906,32.227,37.598,4.883,-8.301
1587019722.084,15.625,31.738,35.156,11.719,-4.883
1587019722.088,69.824,31.738,31.738,59.570,25.391
1587019722.092,54.688,31.250,32.227,54.688,-26.855
1587019722.096,3.418,32.715,37.109,3.418,-35.645
1587019722.100,-0.488,28.809,36.621,-11.230,3.906
1587019722.104,53.711,26.367,35.156,36.621,4.883
1587019722.108,70.801,28.320,36.621,62.988,54.688
1587019722.112,16.113,31.250,35.156,17.090,64.941
1587019722.115,-13.672,32.715,33.203,-14.160,16.602
1587019722.119,35.645,30.762,32.227,25.391,6.836
1587019722.123,75.684,30.273,28.809,68.359,32.715
1587019722.127,30.762,36.133,31.250,38.574,44.434
1587019722.131,-19.531,37.598,35.156,-7.324,37.598
1587019722.135,19.531,33.691,30.762,12.695,17.090
1587019722.139,73.730,28.809,24.902,61.035,18.066
1587019722.143,47.363,29.785,30.273,48.340,6.348
1587019722.147,-10.254,31.250,36.621,0.977,6.836
1587019722.151,1.953,27.832,33.203,10.254,51.758
1587019722.155,62.500,26.367,31.250,62.012,82.520
1587019722.158,65.430,30.762,32.227,68.359,45.410
1587019722.162,13.672,36.621,35.156,21.484,-14.648
1587019722.166,-4.883,36.133,35.645,4.395,-15.625
1587019722.170,50.781,31.250,34.180,49.805,31.738
1587019722.174,83.984,29.785,36.133,78.125,70.801
1587019722.178,29.785,28.809,37.598,35.156,51.758
1587019722.182,-4.395,27.344,38.086,1.465,79.102
1587019722.186,44.434,24.414,35.156,35.156,75.195
1587019722.190,84.961,22.949,34.668,82.031,28.809
1587019722.194,40.527,25.391,34.668,55.664,30.762
1587019722.197,-8.301,29.785,34.668,7.324,63.477
1587019722.201,23.926,29.297,34.180,27.832,48.340
1587019722.205,72.754,23.438,27.832,74.707,57.129
1587019722.209,51.270,25.391,28.320,60.059,24.414
1587019722.213,-3.906,32.227,34.180,6.836,-8.789
1587019722.217,2.930,32.227,35.156,7.812,0.977
1587019722.221,66.895,27.344,34.668,58.594,11.230
1587019722.225,71.777,29.297,34.180,63.477,-5.371
1587019722.229,-0.977,33.203,38.086,11.719,-29.297
1587019722.233,-16.602,33.203,41.504,-10.742,-6.348
1587019722.237,52.734,32.715,36.621,34.668,1.953
1587019722.240,73.730,27.832,32.715,64.941,21.484
1587019722.244,20.020,29.785,37.109,25.879,45.410
1587019722.248,-15.137,31.250,39.062,-12.207,26.367
1587019722.252,25.879,26.855,36.621,14.648,0.488
1587019722.256,71.777,25.879,36.133,59.082,36.621
1587019722.260,31.738,29.297,38.574,36.621,53.223
1587019722.264,-23.926,29.785,42.969,-9.766,36.621
1587019722.268,-1.465,25.879,41.016,2.441,76.172
1587019722.272,51.758,26.855,35.645,51.270,83.008
1587019722.276,45.898,27.832,34.180,49.805,74.707
1587019722.280,-9.766,29.297,37.109,3.906,58.594
1587019722.283,-8.301,28.809,33.203,0.000,10.254
1587019722.287,56.641,28.809,30.273,53.223,1.465
1587019722.291,70.312,31.738,32.715,73.242,3.418
1587019722.295,11.230,33.203,33.203,26.367,11.230
1587019722.299,-8.301,33.691,32.715,0.488,-28.320
1587019722.303,47.363,34.180,31.738,42.480,-18.555
1587019722.307,72.266,33.203,29.785,78.613,84.961
1587019722.311,23.438,35.645,35.156,41.016,100.098
1587019722.315,-5.859,37.109,36.621,-2.930,-16.113
1587019722.319,36.621,34.668,35.156,25.391,-11.230
1587019722.322,85.449,32.715,38.086,69.336,46.875
1587019722.326,60.547,36.621,41.016,50.781,55.664
1587019722.330,6.348,40.527,43.457,3.418,43.945
1587019722.334,26.855,37.109,39.551,5.371,-8.789
1587019722.338,83.984,32.715,36.133,58.594,12.695
1587019722.342,69.824,35.156,37.598,66.895,59.082
1587019722.346,6.348,38.574,38.574,11.230,45.410
1587019722.350,0.000,38.086,37.598,-0.977,14.160
1587019722.354,57.617,33.691,35.156,50.293,56.641
1587019722.358,74.707,34.668,34.180,71.777,101.074
1587019722.362,18.066,37.598,37.598,24.414,41.016
1587019722.365,-9.766,36.621,40.527,-6.348,34.668
1587019722.369,38.574,33.691,37.598,32.715,66.895
1587019722.373,77.148,33.203,36.133,72.266,53.711
1587019722.377,44.922,38.086,37.109,40.527,11.719
1587019722.381,1.465,39.551,34.180,-3.418,-33.691
1587019722.385,33.203,36.133,29.785,25.391,9.766
1587019722.389,84.961,34.668,26.855,78.613,67.383
1587019722.393,68.848,39.062,28.320,66.406,51.270
1587019722.397,6.836,41.992,30.273,14.648,37.598
1587019722.401,13.672,41.016,26.367,16.113,64.941
1587019722.405,80.566,39.551,21.484,67.871,68.359
1587019722.408,74.219,41.504,23.926,73.242,44.434
1587019722.412,5.371,46.875,26.855,18.066,-8.789
1587019722.416,1.465,45.410,28.320,-0.488,-23.926
1587019722.420,61.523,42.969,26.367,45.898,13.184
1587019722.424,77.148,42.480,25.391,68.848,-6.348
1587019722.428,17.090,41.504,30.273,24.414,-29.297
1587019722.432,-16.113,39.551,27.832,-17.578,9.766
1587019722.436,36.133,37.598,22.949,14.648,42.969
1587019722.440,77.637,36.621,24.902,62.500,19.043
1587019722.444,34.668,38.086,25.879,36.133,70.801
1587019722.447,-17.090,41.016,26.367,-4.883,82.031
1587019722.451,12.695,40.039,28.320,16.602,52.246
1587019722.455,77.148,36.621,27.832,66.406,20.996
1587019722.459,63.477,37.598,29.785,62.500,20.508
1587019722.463,2.441,39.062,33.691,14.160,17.578
1587019722.467,0.977,34.668,34.668,11.230,-6.348
1587019722.471,60.547,34.180,35.645,62.988,13.672
1587019722.475,70.801,40.039,35.156,73.242,21.973
1587019722.479,5.371,35.645,38.086,16.602,-11.230
1587019722.483,-15.137,31.738,36.621,-7.324,-5.371
1587019722.487,43.945,31.738,29.297,39.551,0.000
1587019722.490,73.730,33.203,31.738,69.824,17.090
1587019722.494,22.461,37.109,33.203,31.738,26.367
1587019722.498,-15.625,36.621,33.203,-7.324,19.043
1587019722.502,31.250,33.203,30.273,19.043,32.715
1587019722.506,80.566,31.738,31.738,65.430,61.035
1587019722.510,39.062,33.691,36.133,44.434,21.484
1587019722.514,-14.160,33.691,37.109,-4.883,12.207
1587019722.518,10.254,30.762,33.203,4.883,12.695
1587019722.522,59.082,28.320,32.227,56.641,25.391
1587019722.526,51.270,32.227,35.645,57.129,61.523
1587019722.530,-7.812,32.715,34.180,1.465,58.594
1587019722.533,-6.348,31.250,31.250,-7.324,28.320
1587019722.537,47.852,29.297,31.250,46.387,20.020
1587019722.541,51.758,28.320,35.645,64.941,64.453
1587019722.545,-2.930,28.809,36.621,17.090,47.363
1587019722.549,-30.273,28.809,37.598,-13.184,0.488
1587019722.553,24.902,29.785,37.109,25.391,21.484
1587019722.557,69.824,30.762,37.598,66.406,50.293
1587019722.561,25.879,31.738,41.504,33.691,42.480
1587019722.565,-24.902,30.273,36.133,-10.742,27.344
1587019722.569,13.184,31.738,36.621,20.020,19.531
1587019722.572,73.730,36.133,43.945,72.266,57.617
1587019722.576,40.527,27.344,42.480,48.828,59.082
1587019722.580,-24.902,20.020,41.016,-9.766,54.688
1587019722.584,-9.277,21.973,55.664,-4.395,94.238
1587019722.588,42.969,30.273,61.523,44.922,37.598
1587019722.592,18.555,20.996,54.688,25.879,-9.766
1587019722.596,-47.852,22.461,64.453,-41.016,19.531
1587019722.600,-74.219,25.391,71.777,-69.336,29.297
1587019722.604,-32.715,12.207,72.266,-31.738,-2.930
1587019722.608,-5.859,21.484,80.566,-6.348,-14.648
1587019722.612,-77.637,40.039,96.191,-73.730,23.926
1587019722.615,-137.207,37.109,84.473,-140.137,29.297
1587019722.619,-105.957,21.973,72.266,-117.676,38.086
1587019722.623,-82.031,19.531,77.637,-88.867,47.852
1587019722.627,-139.648,27.832,85.449,-136.719,23.926
1587019722.631,-205.566,32.227,96.191,-205.078,-25.879
1587019722.635,-185.547,26.367,96.191,-201.172,11.719
1587019722.639,-142.578,25.391,98.633,-165.039,135.742
1587019722.643,-171.387,30.762,106.934,-186.035,101.562
1587019722.647,-219.727,34.180,110.840,-235.840,26.855
1587019722.651,-202.637,35.156,103.027,-230.469,52.734
1587019722.655,-133.301,33.691,92.285,-169.434,8.789
1587019722.658,-116.211,32.715,86.914,-140.625,-3.418
1587019722.662,-162.109,36.621,83.008,-163.086,54.688
1587019722.666,-159.180,37.598,75.684,-153.320,28.320
1587019722.670,-76.172,34.180,62.988,-81.543,5.371
1587019722.674,-27.344,33.691,55.664,-33.203,8.789
1587019722.678,-65.430,35.156,52.734,-54.199,23.926
1587019722.682,-80.078,37.109,45.898,-64.941,21.484
1587019722.686,-7.812,30.762,32.715,-12.207,7.324
1587019722.690,46.387,26.855,24.414,44.434,63.477
1587019722.694,25.879,33.203,23.926,33.691,70.312
1587019722.697,2.930,35.156,16.602,4.395,-7.324
1587019722.701,49.316,34.668,10.254,35.645,-23.926
1587019722.705,121.582,34.668,6.348,100.586,47.852
1587019722.709,105.957,36.621,4.883,106.445,55.176
1587019722.713,52.734,39.551,3.418,62.012,50.781
1587019722.717,73.242,34.668,0.977,66.406,54.199
1587019722.721,141.602,32.715,-3.906,127.441,70.312
1587019722.725,152.344,36.133,-1.465,149.902,137.695
1587019722.729,91.797,39.551,4.883,105.469,93.262
1587019722.733,73.242,38.574,-0.488,85.449,-5.859
1587019722.737,137.695,36.133,-4.883,134.766,10.254
1587019722.740,167.969,36.621,-5.859,166.992,36.133
1587019722.744,113.281,36.621,-3.418,126.465,17.090
1587019722.748,74.707,41.016,1.953,92.285,4.883
1587019722.752,122.070,38.574,0.977,118.164,39.551
1587019722.756,173.340,36.133,-2.441,158.691,43.945
1587019722.760,141.113,39.551,-2.930,133.789,19.531
1587019722.764,88.379,42.480,0.977,84.961,-3.418
1587019722.768,106.934,42.480,0.488,94.727,-52.734
1587019722.772,166.504,39.551,-3.418,144.043,-23.926
1587019722.776,153.320,43.457,-2.441,139.160,4.395
1587019722.780,87.402,47.363,1.465,81.543,34.668
1587019722.783,85.938,47.852,0.977,68.848,16.113
1587019722.787,144.531,44.434,-0.977,119.141,18.066
1587019722.791,150.879,41.992,4.883,138.672,36.133
1587019722.795,87.891,40.039,11.719,89.844,1.953
1587019722.799,61.035,36.133,13.184,62.988,20.020
1587019722.803,112.793,33.203,10.254,103.027,-1.465
1587019722.807,144.043,34.180,11.719,135.742,1.465
1587019722.811,94.727,37.598,16.113,97.656,11.230
1587019722.815,53.711,35.645,16.113,55.176,-4.395
1587019722.819,88.379,31.250,14.160,81.543,13.672
1587019722.822,135.254,33.691,12.207,130.371,74.707
1587019722.826,101.074,38.086,14.648,111.328,87.402
1587019722.830,36.133,37.109,13.184,55.664,59.082
1587019722.834,58.594,32.715,11.230,57.129,41.504
1587019722.838,122.070,32.227,11.230,107.910,52.734
1587019722.842,109.863,33.203,16.602,112.305,62.988
1587019722.846,41.504,34.668,22.461,59.570,25.879
1587019722.850,31.250,36.133,22.949,44.434,13.672
1587019722.854,90.332,30.762,21.484,94.727,17.578
1587019722.858,111.328,30.273,19.043,115.234,54.688
1587019722.862,58.105,34.668,20.020,63.477,62.988
1587019722.865,26.855,33.691,20.020,30.273,5.371
1587019722.869,77.637,33.203,17.090,69.824,19.043
1587019722.873,125.000,35.645,18.066,111.816,49.805
1587019722.877,85.449,40.039,21.973,83.008,2.930
1587019722.881,41.016,41.992,22.949,38.086,16.602
1587019722.885,75.195,38.086,20.508,56.641,21.484
1587019722.889,118.164,33.203,17.090,102.051,53.223
1587019722.893,94.238,32.715,20.996,86.426,93.750
1587019722.897,37.109,36.621,28.320,33.691,61.035
1587019722.901,40.039,35.156,22.949,32.227,23.438
1587019722.905,98.633,33.203,20.508,81.543,20.020
1587019722.908,97.168,37.109,23.926,88.379,-7.324
1587019722.912,35.156,41.504,25.879,37.109,-4.883
1587019722.916,20.996,40.039,26.855,21.484,1.953
1587019722.920,78.613,35.156,24.902,67.871,-28.809
1587019722.924,103.516,35.645,26.367,93.750,-15.137
1587019722.928,41.504,39.551,27.344,49.316,40.527
1587019722.932,-0.977,38.086,29.297,7.812,56.641
1587019722.936,53.223,34.668,31.250,40.527,51.758
1587019722.940,95.703,34.180,28.320,83.496,47.852
1587019722.944,48.828,37.109,31.250,57.129,70.312
1587019722.947,-2.441,41.992,32.715,15.137,13.672
1587019722.951,24.414,37.598,27.832,29.785,-8.301
1587019722.955,80.566,31.738,26.367,78.613,39.551
1587019722.959,60.059,31.250,24.902,71.777,51.270
1587019722.963,0.488,31.738,26.367,21.484,35.156
1587019722.967,12.207,32.227,27.832,21.484,13.184
1587019722.971,73.730,29.785,24.414,72.754,16.602
1587019722.975,84.961,31.250,26.855,84.961,13.184
1587019722.979,22.949,33.203,31.250,35.156,41.504
1587019722.983,4.395,33.203,30.273,10.254,42.969
1587019722.987,65.430,32.715,26.855,53.711,32.227
1587019722.990,89.355,32.227,26.367,85.449,62.500
1587019722.994,41.992,33.691,30.762,45.410,82.520
1587019722.998,3.906,37.109,33.203,4.883,59.082
1587019723.002,44.922,34.180,30.273,32.715,16.113
1587019723.006,89.355,34.668,29.785,79.102,20.996
1587019723.010,50.293,38.574,33.203,56.152,42.969
1587019723.014,-3.906,37.109,35.156,3.906,25.879
1587019723.018,19.043,32.715,37.109,14.160,14.160
1587019723.022,78.613,28.320,38.574,72.266,45.898
1587019723.026,77.637,30.762,34.668,85.938,20.508
1587019723.030,11.719,39.062,35.645,29.785,38.574
1587019723.033,-7.812,39.062,34.180,-4.883,46.875
1587019723.037,53.223,37.109,29.785,45.898,24.414
1587019723.041,63.965,37.598,32.227,71.777,14.648
1587019723.045,3.418,38.574,35.156,23.438,16.113
1587019723.049,-20.020,38.574,34.180,-3.418,36.133
1587019723.053,36.133,35.156,32.715,34.668,-3.418
1587019723.057,80.566,35.156,32.715,78.125,-6.836
1587019723.061,37.109,36.133,35.156,44.922,2.930
1587019723.065,-5.859,38.574,32.715,-2.930,-18.555
1587019723.069,34.668,37.598,29.297,23.926,-0.488
1587019723.072,83.496,36.133,30.273,72.266,44.922
1587019723.076,58.105,37.109,28.809,55.176,85.938
1587019723.080,4.395,36.621,29.785,5.859,102.051
1587019723.084,22.461,35.156,28.809,16.602,66.406
1587019723.088,86.914,34.668,28.809,68.848,89.355
1587019723.092,81.055,36.621,29.785,68.848,66.895
1587019723.096,12.695,40.039,28.809,12.695,13.184
1587019723.100,5.859,39.551,26.855,0.977,-3.906
1587019723.104,66.406,37.598,26.367,53.223,-9.766
1587019723.108,78.613,36.621,26.367,74.707,13.672
1587019723.112,16.113,39.062,31.250,28.809,25.879
1587019723.115,-6.836,41.504,33.203,-4.395,-11.719
1587019723.119,43.457,36.621,29.785,33.691,17.090
1587019723.123,83.496,31.250,29.785,75.684,20.996
1587019723.127,36.133,33.203,32.715,43.945,13.184
1587019723.131,-17.578,32.227,34.668,-1.953,20.996
1587019723.135,17.578,29.785,30.273,16.113,20.508
1587019723.139,68.359,29.785,24.414,65.430,42.969
1587019723.143,48.828,34.668,26.855,57.617,39.551
1587019723.147,-1.953,38.574,33.203,3.906,19.531
1587019723.151,5.859,35.156,35.156,4.395,50.781
1587019723.155,63.965,30.762,33.691,55.176,52.734
1587019723.158,59.082,30.762,34.668,66.895,24.414
1587019723.162,-3.906,33.691,37.598,17.578,6.348
1587019723.166,-17.090,35.156,39.062,-2.441,40.039
1587019723.170,37.109,30.273,36.133,47.852,46.875
1587019723.174,74.707,31.250,32.715,78.613,26.367
1587019723.178,23.926,36.621,39.551,42.480,36.133
1587019723.182,-14.648,34.180,41.992,7.324,40.527
1587019723.186,39.062,28.320,36.621,39.062,66.406
1587019723.190,88.867,29.785,37.109,84.473,36.621
1587019723.194,46.387,33.691,40.527,54.199,14.648
1587019723.197,-10.254,36.133,41.504,4.395,29.785
1587019723.201,27.344,37.598,38.574,20.020,9.277
1587019723.205,89.844,36.621,35.156,69.336,-1.953
1587019723.209,63.477,35.645,36.133,64.941,51.758
1587019723.213,1.465,39.551,37.109,9.277,62.988
1587019723.217,11.719,40.527,32.227,1.953,44.434
1587019723.221,69.824,38.574,29.297,55.176,22.949
1587019723.225,62.500,38.574,29.785,68.359,7.324
1587019723.229,0.488,39.062,33.203,18.555,60.547
1587019723.233,-11.230,37.109,32.227,-9.277,41.992
1587019723.237,43.457,34.180,30.273,33.203,3.418
1587019723.240,70.312,32.227,32.227,65.918,-36.133
1587019723.244,15.625,33.691,33.203,24.902,-20.996
1587019723.248,-23.926,35.645,32.715,-15.137,50.293
1587019723.252,12.695,34.180,29.785,15.137,98.145
1587019723.256,55.664,32.227,25.879,62.500,70.312
1587019723.260,27.832,35.645,30.762,44.922,29.297
1587019723.264,-24.902,36.133,35.645,1.465,-17.578
1587019723.268,-4.883,29.785,31.250,9.277,18.555
1587019723.272,57.617,25.391,27.344,54.199,39.551
1587019723.276,49.316,28.320,30.273,56.641,14.648
1587019723.280,-12.207,32.227,34.180,5.371,44.922
1587019723.283,-13.672,30.762,35.156,-5.859,17.578
1587019723.287,48.340,29.297,29.785,46.387,-6.836
1587019723.291,67.871,28.809,27.832,68.359,-11.719
1587019723.295,18.555,30.762,29.785,20.996,-29.785
1587019723.299,1.953,33.203,27.832,-6.836,-25.879
1587019723.303,63.965,35.156,24.902,34.668,15.137
1587019723.307,103.027,38.086,24.414,73.242,73.242
1587019723.311,46.387,39.551,28.809,37.598,79.102
1587019723.315,5.371,41.504,31.250,-9.766,24.414
1587019723.319,41.016,40.527,29.785,12.207,23.926
1587019723.322,85.938,38.086,30.273,62.500,85.938
1587019723.326,53.711,40.039,32.227,46.387,35.156
1587019723.330,-21.484,36.621,33.691,-8.301,33.203
1587019723.334,5.859,31.738,33.691,13.184,20.508
1587019723.338,78.613,37.109,29.297,80.566,35.645
1587019723.342,59.570,40.039,29.297,63.965,24.902
1587019723.346,0.488,42.969,31.738,-4.395,13.184
1587019723.350,-17.090,44.434,32.227,-12.207,41.992
1587019723.354,35.156,43.457,25.879,37.598,14.648
1587019723.358,78.125,47.363,24.414,60.547,13.672
1587019723.362,23.926,53.223,23.438,12.207,36.621
1587019723.365,-14.160,53.711,19.531,-27.344,41.504
1587019723.369,34.180,53.223,18.066,9.766,32.227
1587019723.373,92.285,53.223,14.160,52.734,5.859
1587019723.377,52.734,51.270,14.648,26.367,4.883
1587019723.381,-10.742,46.875,17.578,-14.160,16.602
1587019723.385,19.531,47.363,19.043,12.207,-45.410
1587019723.389,78.125,48.340,21.973,68.359,-7.812
1587019723.393,59.570,47.363,23.438,58.105,87.402
1587019723.397,3.906,45.898,26.855,5.859,74.219
1587019723.401,12.695,41.016,27.832,11.230,55.664
1587019723.405,78.613,41.016,27.344,67.383,78.125
1587019723.408,82.520,42.480,29.297,75.684,68.359
1587019723.412,25.391,44.434,32.227,27.344,-25.391
1587019723.416,8.789,42.969,33.691,4.395,0.488
1587019723.420,59.570,40.039,31.250,44.922,31.250
1587019723.424,87.402,40.039,28.809,71.777,28.809
1587019723.428,35.645,41.504,29.785,29.785,2.930
1587019723.432,-0.977,44.922,35.156,-3.418,15.137
1587019723.436,49.316,42.969,31.738,30.762,53.223
1587019723.440,92.285,36.621,24.414,66.406,17.090
1587019723.444,51.758,37.109,27.344,40.039,34.180
1587019723.447,-0.977,38.574,29.785,-6.836,66.895
1587019723.451,18.066,36.133,27.344,4.883,54.199
1587019723.455,84.961,38.574,27.344,58.105,66.406
1587019723.459,67.871,40.039,29.297,53.223,102.539
1587019723.463,-0.488,39.551,31.250,-0.488,2.930
1587019723.467,0.488,37.109,30.273,-6.348,-3.418
1587019723.471,56.152,35.645,27.832,51.758,42.480
1587019723.475,72.754,37.598,27.344,69.336,-16.113
1587019723.479,13.672,40.039,28.809,18.555,-33.203
1587019723.483,-3.906,40.039,31.738,-6.348,-24.414
1587019723.487,52.246,38.086,31.738,37.109,-11.230
1587019723.490,72.754,37.598,29.785,69.336,31.738
1587019723.494,27.832,41.504,31.738,28.320,-28.320
1587019723.498,-17.090,41.992,33.691,-10.742,-33.691
1587019723.502,12.207,39.062,33.203,17.090,32.715
1587019723.506,53.223,35.156,28.809,62.500,35.156
1587019723.510,25.391,37.109,30.762,42.969,28.809
1587019723.514,-3.418,38.574,34.668,-6.348,21.484
1587019723.518,26.367,35.645,32.227,2.930,50.781
1587019723.522,82.520,35.156,32.715,60.547,21.973
1587019723.526,77.148,38.086,36.133,67.383,36.621
1587019723.530,12.695,37.598,36.133,10.254,76.172
1587019723.533,5.859,37.109,32.715,-4.395,20.508
1587019723.537,81.543,36.133,28.809,49.805,36.133
1587019723.541,95.703,33.203,28.320,70.312,64.453
1587019723.545,33.691,37.598,29.785,19.531,52.246
1587019723.549,10.254,41.016,32.715,-9.277,15.625
1587019723.553,64.453,39.551,32.715,32.227,8.789
1587019723.557,96.191,41.016,28.809,68.359,45.410
1587019723.561,44.922,41.504,31.738,34.180,16.113
1587019723.565,2.930,39.062,33.691,-8.789,-6.836
1587019723.569,35.645,35.645,31.738,10.742,-8.301
1587019723.572,84.961,32.227,33.691,61.523,37.109
1587019723.576,59.570,34.180,32.715,47.852,55.176
1587019723.580,3.418,36.621,32.227,-5.371,10.254
1587019723.584,21.484,35.645,30.273,0.977,23.926
1587019723.588,71.289,33.691,29.297,55.176,130.371
1587019723.592,57.129,33.691,34.180,59.082,124.023
1587019723.596,13.184,36.133,36.621,9.277,69.824
1587019723.600,0.000,34.180,35.156,-8.789,65.918
1587019723.604,51.758,31.738,31.738,38.086,18.066
1587019723.608,77.148,38.086,33.203,66.895,53.223
1587019723.612,15.137,39.551,34.668,18.066,75.195
1587019723.615,-12.695,38.086,36.621,-10.254,11.719
1587019723.619,41.504,37.598,31.738,25.879,3.418
1587019723.623,85.938,37.109,28.320,67.383,33.691
1587019723.627,46.875,40.039,33.691,41.992,36.621
1587019723.631,-11.230,39.551,36.133,-8.301,33.691
1587019723.635,20.020,33.203,32.715,7.324,7.812
1587019723.639,75.195,27.344,31.738,58.105,-7.324
1587019723.643,60.059,29.297,36.621,50.781,-4.883
1587019723.647,-5.371,32.715,40.527,0.977,2.930
1587019723.651,-4.883,32.227,40.039,0.000,-5.371
1587019723.655,66.406,29.297,33.691,51.758,15.137
1587019723.658,74.219,33.203,32.227,68.848,16.602
1587019723.662,13.184,36.133,35.645,20.996,11.719
1587019723.666,-0.488,34.668,35.645,1.953,-4.395
1587019723.670,57.129,37.109,32.715,49.805,19.531
1587019723.674,79.102,34.668,30.273,75.684,57.129
1587019723.678,27.344,33.691,31.738,34.180,31.250
1587019723.682,-8.301,35.156,35.156,2.441,-22.461
1587019723.686,35.156,33.203,35.156,35.156,15.137
1587019723.690,84.473,33.203,34.668,82.031,46.387
1587019723.694,58.105,34.180,36.133,59.082,-19.531
1587019723.697,6.836,35.645,36.621,7.324,12.695
1587019723.701,32.715,36.133,37.598,20.508,23.438
1587019723.705,90.332,34.668,36.621,68.848,3.906
1587019723.709,73.730,37.598,35.156,62.012,39.551
1587019723.713,5.859,37.598,37.598,8.789,29.297
1587019723.717,7.324,34.668,35.156,2.441,60.059
1587019723.721,72.266,30.762,30.273,53.711,74.707
1587019723.725,84.961,33.691,32.227,66.895,55.176
1587019723.729,21.973,37.109,34.668,14.160,33.203
1587019723.733,-13.184,34.668,34.668,-11.719,44.922
1587019723.737,41.016,28.809,29.297,31.738,84.473
1587019723.740,77.637,28.809,27.832,63.965,40.527
1587019723.744,24.414,33.691,34.668,28.320,12.695
1587019723.748,-19.531,33.203,37.598,-11.230,8.789
1587019723.752,23.438,32.715,31.738,17.090,10.742
1587019723.756,71.777,32.715,27.344,65.918,25.391
1587019723.760,38.086,32.227,29.297,45.410,22.461
1587019723.764,-13.672,32.715,32.227,-6.348,55.664
1587019723.768,3.418,33.203,33.203,5.371,3.418
1587019723.772,56.152,32.227,29.785,54.688,25.391
1587019723.776,62.500,32.227,28.809,51.270,45.410
1587019723.780,7.812,32.715,32.715,-0.977,33.203
1587019723.783,-6.348,31.738,29.297,-12.207,52.246
1587019723.787,54.688,28.809,28.320,40.527,80.566
1587019723.791,63.965,32.227,32.227,65.918,66.406
1587019723.795,1.953,34.180,33.691,18.555,29.785
1587019723.799,-18.066,32.227,32.227,-11.230,73.730
1587019723.803,30.273,29.297,36.133,35.645,42.480
1587019723.807,71.289,27.832,37.109,82.031,42.480
1587019723.811,37.598,30.273,37.598,49.316,57.129
1587019723.815,3.418,29.785,38.574,5.859,25.391
1587019723.819,42.969,26.855,33.691,31.738,21.484
1587019723.822,92.285,28.320,32.715,79.590,27.344
1587019723.826,65.430,32.227,35.645,66.895,51.270
1587019723.830,6.836,36.133,40.527,20.020,18.555
1587019723.834,22.461,35.156,40.527,24.414,0.000
1587019723.838,80.078,30.762,36.133,77.637,78.125
1587019723.842,74.707,32.227,37.598,85.449,56.152
1587019723.846,16.602,37.598,40.039,38.086,-15.137
1587019723.850,3.418,35.156,40.039,23.438,15.625
1587019723.854,51.270,34.668,36.621,63.965,25.879
1587019723.858,78.125,38.086,32.715,84.961,-3.418
1587019723.862,31.250,38.086,34.668,38.086,14.160
1587019723.865,2.930,36.133,34.180,-0.488,-4.883
1587019723.869,44.922,36.133,31.738,33.203,25.391
1587019723.873,82.031,35.156,31.738,73.242,83.496
1587019723.877,42.969,36.133,33.691,41.992,47.363
1587019723.881,-7.812,40.527,36.621,-4.395,-15.625
1587019723.885,21.973,37.109,30.762,13.184,-5.859
1587019723.889,71.777,33.691,23.438,66.895,62.012
1587019723.893,58.105,39.062,29.297,59.570,62.500
1587019723.897,-7.324,40.039,33.691,0.977,23.926
1587019723.901,-12.695,32.715,34.668,-0.488,11.719
1587019723.905,53.711,26.855,34.668,52.734,55.176
1587019723.908,60.059,26.855,35.645,61.523,17.578
1587019723.912,-2.930,28.320,38.086,8.789,-24.902
1587019723.916,-13.184,25.391,39.062,-10.254,19.531
1587019723.920,45.410,23.438,36.621,34.180,-1.953
1587019723.924,61.523,26.367,36.133,71.289,16.602
1587019723.928,15.625,30.762,38.086,36.133,40.039
1587019723.932,-11.719,32.227,41.992,-4.883,40.039
1587019723.936,35.156,30.273,40.039,27.344,12.695
1587019723.940,75.195,26.855,32.715,68.359,1.953
1587019723.944,42.480,28.809,35.645,45.898,19.531
1587019723.947,-12.695,31.250,38.574,1.465,35.645
1587019723.951,9.766,28.809,34.668,11.230,63.965
1587019723.955,81.055,30.273,32.227,60.547,40.527
1587019723.959,77.637,33.203,36.621,65.918,60.059
1587019723.963,2.441,28.809,37.109,16.113,83.984
1587019723.967,-6.836,26.855,29.785,1.953,44.434
1587019723.971,66.895,27.344,26.855,52.734,61.035
1587019723.975,84.473,32.227,32.227,71.777,83.496
1587019723.979,18.555,33.691,36.621,21.484,57.129
1587019723.983,-15.625,33.691,35.156,-3.906,86.914
1587019723.987,48.340,35.645,35.156,45.898,25.879
1587019723.990,87.402,36.621,37.109,85.938,-14.648
1587019723.994,41.504,39.551,38.574,51.270,37.598
1587019723.998,5.371,39.062,39.551,12.207,10.742
1587019724.002,48.340,35.156,35.156,38.574,39.551
1587019724.006,94.727,30.762,32.715,83.984,79.590
1587019724.010,58.105,34.668,34.668,64.941,23.926
1587019724.014,5.371,39.551,37.598,7.812,-5.859
1587019724.018,25.879,34.180,34.668,15.137,-26.855
1587019724.022,79.590,30.273,27.832,66.895,-30.762
1587019724.026,67.383,29.785,28.809,65.918,4.883
1587019724.030,6.348,35.645,31.250,20.996,49.316
1587019724.033,3.906,38.086,31.738,8.301,24.902
1587019724.037,59.082,33.203,26.855,50.781,17.578
1587019724.041,76.172,32.715,27.344,77.148,43.945
1587019724.045,24.414,36.621,30.762,29.297,30.762
1587019724.049,-11.719,36.133,32.715,-0.977,47.363
1587019724.053,31.738,31.250,34.180,39.551,76.660
1587019724.057,80.078,31.250,33.691,76.172,104.492
1587019724.061,34.180,35.156,39.551,41.992,103.516
1587019724.065,-11.719,34.668,41.992,-4.883,11.230
1587019724.069,22.461,30.273,39.062,17.578,6.836
1587019724.072,71.777,27.344,38.574,63.965,30.762
1587019724.076,47.363,28.809,40.039,50.293,22.949
1587019724.080,-20.508,34.180,41.016,1.465,-13.184
1587019724.084,-0.488,33.691,39.551,3.418,-25.391
1587019724.088,62.012,31.250,37.109,53.223,48.340
1587019724.092,54.199,32.227,38.086,56.641,48.340
1587019724.096,-1.465,37.109,38.574,8.301,25.879
1587019724.100,-8.301,36.621,37.109,-7.812,42.969
1587019724.104,59.082,32.715,33.691,38.086,43.457
1587019724.108,80.078,33.203,34.668,69.824,65.430
1587019724.112,19.043,34.180,35.645,29.785,54.199
1587019724.115,-17.578,33.203,38.574,-5.859,35.156
1587019724.119,23.926,29.297,35.645,30.762,32.715
1587019724.123,60.059,27.832,32.227,73.730,65.430
1587019724.127,17.090,30.273,33.203,37.109,61.523
1587019724.131,-35.156,32.227,35.156,-13.184,17.578
1587019724.135,-8.301,30.762,34.668,7.812,-20.996
1587019724.139,56.641,32.715,32.227,60.547,24.414
1587019724.143,50.781,35.645,34.180,50.781,35.156
1587019724.147,-9.766,37.598,36.621,3.418,19.531
1587019724.151,-4.395,40.039,35.156,6.836,-5.371
1587019724.155,72.266,39.551,26.367,60.547,-1.465
1587019724.158,86.914,41.992,28.320,76.660,12.695
1587019724.162,14.648,42.480,37.109,20.996,54.688
1587019724.166,-8.789,41.016,36.133,-5.371,27.832
1587019724.170,45.410,39.551,34.668,37.109,-26.855
1587019724.174,78.125,38.086,31.738,66.406,1.953
1587019724.178,28.809,39.062,32.227,24.902,20.020
1587019724.182,-17.578,39.551,34.180,-11.719,-24.902
1587019724.186,31.738,39.551,31.250,20.996,-0.977
1587019724.190,76.172,38.086,28.320,64.941,10.254
1587019724.194,33.691,35.645,32.227,40.527,69.824
1587019724.197,-12.207,37.598,35.645,-9.277,87.402
1587019724.201,14.160,39.551,33.203,5.859,47.363
1587019724.205,68.848,39.062,28.809,56.641,94.727
1587019724.209,53.223,39.062,29.297,50.293,81.543
1587019724.213,-7.324,40.039,33.203,-2.930,70.312
1587019724.217,-7.812,38.086,35.156,-6.348,102.051
1587019724.221,56.152,34.668,34.180,44.922,39.062
1587019724.225,68.848,37.109,32.227,58.594,14.648
1587019724.229,7.324,39.551,36.133,13.672,50.293
1587019724.233,-14.648,36.621,34.180,-12.207,-5.859
1587019724.237,47.852,34.668,30.273,31.250,-29.785
1587019724.240,82.520,37.598,35.645,72.754,19.043
1587019724.244,34.668,37.598,38.574,36.621,40.527
1587019724.248,-9.766,36.133,38.086,-2.930,-11.719
1587019724.252,26.855,34.180,38.574,28.809,26.855
1587019724.256,79.102,32.715,39.062,75.684,37.598
1587019724.260,48.340,34.668,40.039,55.176,-5.859
1587019724.264,-5.371,38.086,43.457,7.324,4.883
1587019724.268,12.695,33.691,38.574,11.230,29.785
1587019724.272,68.359,28.809,31.738,59.570,1.953
1587019724.276,62.500,34.180,33.691,66.406,-13.672
1587019724.280,-2.930,35.156,32.715,15.137,0.000
1587019724.283,-9.766,33.203,30.273,3.906,-2.930
1587019724.287,50.781,30.273,30.273,53.711,-17.578
1587019724.291,68.848,34.180,33.691,75.684,42.969
1587019724.295,17.578,35.156,38.086,29.785,15.625
1587019724.299,-13.184,30.273,33.203,-1.953,-67.871
1587019724.303,36.133,27.344,30.273,37.598,-25.879
1587019724.307,77.148,29.785,34.668,81.055,46.875
1587019724.311,27.832,32.715,40.039,51.758,24.902
1587019724.315,-19.043,37.109,41.016,2.441,29.297
1587019724.319,15.137,36.621,37.598,19.043,37.598
1587019724.322,63.965,32.227,35.156,72.754,59.082
1587019724.326,41.504,36.133,39.062,57.617,59.570
1587019724.330,-16.113,40.527,43.457,3.418,10.254
1587019724.334,3.418,40.039,39.062,2.441,-13.672
1587019724.338,68.359,37.109,35.156,58.105,41.504
1587019724.342,63.965,37.598,39.551,67.383,62.500
1587019724.346,5.371,40.039,40.039,8.789,36.621
1587019724.350,-9.766,37.109,39.062,-11.719,36.133
1587019724.354,49.316,33.691,39.551,36.133,55.664
1587019724.358,72.754,31.738,39.062,64.941,65.918
1587019724.362,16.113,32.227,41.992,21.973,-7.324
1587019724.365,-10.254,36.621,42.969,-8.301,-40.527
1587019724.369,34.668,33.203,40.039,26.855,41.016
1587019724.373,79.102,29.297,38.086,68.359,60.547
1587019724.377,45.898,32.227,37.598,42.480,49.316
1587019724.381,-7.324,34.668,36.621,-4.883,47.363
1587019724.385,23.438,34.180,36.621,11.230,24.414
1587019724.389,79.590,32.227,35.156,66.406,9.766
1587019724.393,61.035,34.668,33.691,61.523,58.105
1587019724.397,2.441,39.062,35.645,7.324,15.625
1587019724.401,9.277,39.062,34.668,7.324,-13.184
1587019724.405,68.359,33.691,32.715,60.547,44.922
1587019724.408,72.754,32.715,34.180,72.754,63.965
1587019724.412,8.789,34.180,37.109,22.461,26.367
1587019724.416,-12.695,32.715,39.551,1.953,-3.906
1587019724.420,50.781,32.715,38.574,51.270,0.000
1587019724.424,83.008,31.250,33.691,83.008,26.367
1587019724.428,19.531,29.297,33.203,41.504,66.895
1587019724.432,-26.367,32.227,38.574,0.000,60.059
1587019724.436,30.273,34.668,37.109,31.250,103.027
1587019724.440,83.496,31.738,31.738,75.195,118.164
1587019724.444,47.852,33.691,34.180,46.875,104.980
1587019724.447,-7.324,37.109,40.527,-0.977,63.965
1587019724.451,15.137,37.598,36.133,10.742,32.227
1587019724.455,77.637,39.062,31.738,62.012,32.715
1587019724.459,62.500,41.992,33.691,57.617,26.367
1587019724.463,-3.906,44.922,34.180,0.000,13.184
1587019724.467,-3.906,41.992,33.691,-7.812,-28.809
1587019724.471,56.641,35.156,29.785,45.410,74.707
1587019724.475,76.172,38.574,31.250,66.895,111.328
1587019724.479,20.020,44.922,38.086,25.879,56.152
1587019724.483,-11.719,38.574,30.762,-4.883,28.320
1587019724.487,42.480,34.668,26.855,34.180,36.621
1587019724.490,69.336,33.691,30.273,70.801,69.336
1587019724.494,17.578,35.645,33.203,31.738,31.738
1587019724.498,-17.090,34.668,39.062,-12.695,19.531
1587019724.502,21.484,31.250,38.086,12.695,21.484
1587019724.506,70.312,28.320,34.668,62.500,15.625
1587019724.510,35.156,28.320,40.039,47.363,33.203
1587019724.514,-20.020,27.344,39.551,-3.418,8.789
1587019724.518,-0.488,23.438,35.156,1.465,-42.480
1587019724.522,55.664,21.973,35.156,57.617,-0.488
1587019724.526,49.316,23.926,37.109,65.918,31.250
1587019724.530,-11.719,26.855,41.504,18.555,43.945
1587019724.533,-10.254,29.785,43.945,2.441,46.875
1587019724.537,55.176,29.785,42.480,46.387,29.785
1587019724.541,69.336,28.320,39.551,71.289,70.801
1587019724.545,15.625,33.203,41.016,29.297,21.973
1587019724.549,-11.719,31.738,41.016,2.441,-2.930
1587019724.553,44.434,29.785,35.156,44.434,31.738
1587019724.557,87.891,32.227,32.227,85.449,36.133
1587019724.561,48.828,37.109,38.574,54.199,14.160
1587019724.565,3.906,40.527,39.551,3.906,-28.320
1587019724.569,29.785,36.621,34.180,19.531,-7.812
1587019724.572,76.172,36.621,35.645,65.918,39.062
1587019724.576,57.617,38.574,36.133,50.781,49.316
1587019724.580,-0.977,40.527,37.598,0.000,-3.418
1587019724.584,13.672,36.621,38.086,3.418,-14.160
1587019724.588,73.730,33.203,36.621,57.617,50.293
1587019724.592,70.801,36.621,36.133,67.383,24.902
1587019724.596,17.578,39.551,38.086,15.137,-3.906
1587019724.600,2.930,40.527,37.598,-1.953,-20.996
1587019724.604,52.246,39.062,33.691,47.852,-22.949
1587019724.608,74.219,37.598,28.809,76.660,7.812
1587019724.612,18.066,41.504,30.273,29.785,2.441
1587019724.615,-13.184,44.922,33.691,-8.301,-39.062
1587019724.619,35.156,43.945,31.738,31.250,-14.160
1587019724.623,77.148,40.039,28.320,74.219,30.762
1587019724.627,41.992,40.527,30.762,46.387,27.344
1587019724.631,-9.766,41.504,33.203,-4.395,55.664
1587019724.635,13.184,36.621,26.367,10.254,77.148
1587019724.639,73.242,33.203,24.902,64.941,61.523
1587019724.643,59.082,35.156,31.250,59.570,45.410
1587019724.647,-3.906,36.621,33.691,3.418,36.133
1587019724.651,-1.465,37.598,31.738,-4.883,-31.250
1587019724.655,69.824,38.086,30.273,45.410,-26.367
1587019724.658,82.520,37.598,32.715,63.965,26.367
1587019724.662,14.648,40.039,34.668,12.695,20.996
1587019724.666,-6.836,37.109,30.762,-19.531,-1.465
1587019724.670,50.293,35.156,28.809,24.414,13.672
1587019724.674,82.520,35.645,30.762,56.641,57.129
1587019724.678,32.715,36.621,32.715,17.090,36.133
1587019724.682,-8.789,39.062,32.227,-16.602,-22.461
1587019724.686,34.180,36.621,29.297,14.160,20.508
1587019724.690,83.984,34.668,30.273,63.477,51.758
1587019724.694,52.246,38.574,35.645,47.852,-32.715
1587019724.697,-6.348,39.551,39.062,2.441,-15.137
1587019724.701,14.648,36.621,36.621,15.137,-0.977
1587019724.705,79.102,35.645,39.551,67.871,-5.859
1587019724.709,63.477,36.133,35.645,66.406,77.637
1587019724.713,-1.953,38.574,36.133,12.695,64.941
1587019724.717,6.348,37.109,37.109,2.441,55.664
1587019724.721,66.895,29.785,29.297,50.293,91.309
1587019724.725,80.078,29.785,31.250,73.730,88.867
1587019724.729,20.020,36.133,34.668,32.227,27.344
1587019724.733,-8.789,39.062,34.180,4.395,-10.254
1587019724.737,42.480,38.086,31.738,43.457,11.719
1587019724.740,79.102,35.645,30.273,82.031,37.109
1587019724.744,33.691,38.086,36.621,46.875,26.855
1587019724.748,-15.625,39.062,39.062,2.930,48.828
1587019724.752,17.090,36.133,33.691,26.855,69.824
1587019724.756,71.777,34.668,29.785,69.824,15.625
1587019724.760,42.969,36.133,32.227,49.316,44.922
1587019724.764,-16.602,36.133,35.156,-3.906,58.105
1587019724.768,-6.836,30.762,32.715,-0.977,32.227
1587019724.772,54.199,30.273,28.320,50.781,64.453
1587019724.776,57.617,35.156,31.250,55.664,50.781
1587019724.780,-1.465,36.621,31.250,4.883,33.203
1587019724.783,-10.742,33.203,27.832,-10.742,40.527
1587019724.787,49.316,29.785,26.367,36.621,53.711
1587019724.791,65.430,31.250,25.391,62.500,62.012
1587019724.795,11.719,34.668,30.762,16.113,13.184
1587019724.799,-10.742,38.574,35.645,-16.113,10.742
1587019724.803,40.527,33.691,32.715,24.414,2.930
1587019724.807,86.914,31.738,28.809,67.871,25.879
1587019724.811,51.758,38.574,33.203,40.527,96.191
1587019724.815,16.602,41.992,38.574,-2.930,75.195
1587019724.819,52.246,40.039,32.227,21.973,20.996
1587019724.822,98.633,34.668,29.297,75.195,9.766
1587019724.826,70.312,34.668,35.645,67.383,43.457
1587019724.830,2.930,41.504,40.527,21.484,27.344
1587019724.834,7.324,36.133,34.668,19.043,12.695
1587019724.838,66.406,32.715,29.785,75.195,21.973
1587019724.842,69.824,35.645,32.715,85.938,56.641
1587019724.846,0.000,37.598,35.156,26.367,111.816
1587019724.850,-27.344,38.574,33.203,0.000,104.980
1587019724.854,38.086,33.691,28.320,44.434,55.176
1587019724.858,73.242,31.738,28.320,75.684,10.254
1587019724.862,21.484,35.156,32.715,35.645,21.973
1587019724.865,-9.277,37.598,34.180,0.488,46.387
1587019724.869,38.086,36.133,34.180,34.180,74.219
1587019724.873,83.008,33.203,27.832,79.102,38.086
1587019724.877,47.852,34.180,28.809,53.711,20.020
1587019724.881,0.000,39.062,32.227,4.883,8.301
1587019724.885,26.855,41.504,29.297,19.531,-7.324
1587019724.889,83.008,41.016,28.809,69.336,4.395
1587019724.893,63.477,41.016,30.273,59.082,-23.438
1587019724.897,8.301,44.434,29.297,4.883,-35.156
1587019724.901,10.254,44.922,28.809,1.953,-22.949
1587019724.905,68.359,39.062,26.367,52.734,36.621
1587019724.908,81.055,37.598,25.879,68.359,52.734
1587019724.912,23.438,40.039,30.762,20.020,16.113
1587019724.916,-3.906,36.621,32.227,-10.742,69.824
1587019724.920,45.410,33.203,29.297,29.297,67.383
1587019724.924,79.102,34.668,32.227,67.383,56.152
1587019724.928,25.391,37.598,37.109,29.297,53.711
1587019724.932,-19.531,36.621,34.180,-12.695,55.176
1587019724.936,23.926,35.645,29.297,16.113,85.938
1587019724.940,76.660,33.691,27.832,62.500,38.086
1587019724.944,45.898,33.691,27.832,46.387,28.320
1587019724.947,-6.348,36.621,30.762,2.930,2.930
1587019724.951,17.578,39.062,33.691,19.043,-10.254
1587019724.955,84.473,33.691,30.762,72.754,5.859
1587019724.959,76.172,31.250,32.227,75.195,29.785
1587019724.963,14.648,35.645,37.598,28.809,13.672
1587019724.967,11.230,32.227,35.156,15.137,-12.695
1587019724.971,71.777,30.273,31.738,67.383,52.734
1587019724.975,92.285,31.250,32.715,92.285,63.477
1587019724.979,30.762,36.133,34.668,42.969,11.719
1587019724.983,6.836,38.086,33.203,13.184,9.277
1587019724.987,64.453,37.109,27.832,50.781,28.809
1587019724.990,100.586,40.039,29.297,88.867,31.738
1587019724.994,59.570,41.992,33.203,53.223,47.852
1587019724.998,11.230,39.062,31.738,8.301,76.660
1587019725.002,45.898,34.668,31.250,29.785,47.363
1587019725.006,97.656,32.227,30.273,81.055,57.129
1587019725.010,67.871,32.715,29.297,61.523,25.391
1587019725.014,11.230,36.621,32.715,1.465,-50.781
1587019725.018,20.508,34.668,32.715,5.859,-3.906
1587019725.022,76.172,35.156,31.250,58.594,43.945
1587019725.026,72.754,38.574,35.156,62.500,64.453
1587019725.030,5.859,34.668,38.574,9.277,58.594
1587019725.033,-3.906,31.250,39.551,-6.836,30.762
1587019725.037,61.523,31.250,36.621,39.551,24.414
1587019725.041,83.008,35.156,38.086,70.801,85.449
1587019725.045,23.438,37.598,40.527,29.785,73.730
1587019725.049,-16.602,35.156,36.621,-2.930,34.668
1587019725.053,34.180,33.203,30.273,37.109,63.965
1587019725.057,81.543,31.738,29.785,79.590,50.293
1587019725.061,38.086,28.809,29.297,46.387,15.137
1587019725.065,-9.766,31.250,29.297,0.488,26.855
1587019725.069,22.461,32.715,26.367,23.926,52.246
1587019725.072,77.637,34.180,18.555,72.266,83.984
1587019725.076,59.570,38.086,17.090,54.688,25.391
1587019725.080,0.977,41.016,20.508,0.000,-11.230
1587019725.084,12.695,38.574,20.996,-0.977,25.391
1587019725.088,71.777,34.668,19.531,45.898,48.828
1587019725.092,66.406,35.645,22.461,51.758,54.688
1587019725.096,6.348,32.227,25.391,-8.301,37.109
1587019725.100,-9.277,31.250,27.832,-38.086,-37.598
1587019725.104,43.945,27.344,26.855,6.348,-25.879
1587019725.108,68.848,23.926,26.855,38.574,41.992
1587019725.112,8.301,26.367,33.691,-4.395,39.551
1587019725.115,-33.203,27.344,37.598,-37.109,17.578
1587019725.119,15.137,24.414,34.180,3.418,37.109
1587019725.123,57.617,20.996,30.762,54.199,32.227
1587019725.127,22.949,22.949,38.086,42.969,39.551
1587019725.131,-27.344,24.902,46.387,4.883,32.227
1587019725.135,9.766,21.973,45.410,26.367,-18.066
1587019725.139,74.219,19.531,41.992,86.914,-7.812
1587019725.143,62.012,23.926,45.410,92.773,10.254
1587019725.147,1.465,23.926,49.805,40.527,-16.602
1587019725.151,-0.977,23.926,49.316,31.738,8.301
1587019725.155,65.918,25.879,48.340,81.543,-0.977
1587019725.158,77.637,22.949,44.922,87.891,22.461
1587019725.162,16.602,26.367,42.480,34.180,15.137
1587019725.166,-7.324,30.762,43.945,5.859,-53.223
1587019725.170,51.270,32.227,42.969,44.922,4.883
1587019725.174,89.844,34.668,40.039,73.242,58.105
1587019725.178,36.621,33.691,34.668,28.809,-51.758
1587019725.182,-9.277,34.180,33.203,-15.137,-33.203
1587019725.186,32.227,38.574,34.668,9.766,66.895
1587019725.190,74.707,37.109,30.273,47.852,37.109
1587019725.194,43.457,35.156,26.367,23.926,38.574
1587019725.197,-9.277,35.645,29.785,-27.832,74.219
1587019725.201,9.277,33.691,28.320,-18.555,35.156
1587019725.205,71.777,31.738,24.902,38.574,17.578
1587019725.209,58.594,34.180,27.832,41.992,41.016
1587019725.213,-6.348,34.668,31.250,-8.789,63.477
1587019725.217,-11.230,34.668,31.250,-20.508,59.570
1587019725.221,54.199,31.738,30.273,29.297,58.594
1587019725.225,72.754,28.320,31.250,53.223,101.562
1587019725.229,2.441,28.809,33.691,5.859,45.898
1587019725.233,-30.273,27.832,36.621,-22.461,9.766
1587019725.237,29.785,25.391,37.109,23.926,-2.441
1587019725.240,61.523,23.438,37.598,67.871,11.719
1587019725.244,20.996,24.414,40.527,36.133,57.617
1587019725.248,-14.648,28.320,43.457,-3.906,36.133
1587019725.252,16.113,22.949,40.527,19.043,10.742
1587019725.256,69.824,19.043,37.109,70.312,40.039
1587019725.260,44.922,24.902,42.480,59.082,62.012
1587019725.264,-8.789,27.832,47.363,8.789,41.016
1587019725.268,9.277,22.949,42.480,13.184,-8.301
1587019725.272,72.266,20.020,40.527,67.383,5.859
1587019725.276,83.008,23.438,43.945,76.172,69.336
1587019725.280,26.367,25.879,44.922,23.438,53.711
1587019725.283,16.113,27.832,41.992,6.836,-4.395
1587019725.287,72.266,26.367,38.574,59.082,-28.320
1587019725.291,93.262,27.832,40.527,90.332,9.766
1587019725.295,42.969,32.715,44.434,45.898,-20.020
1587019725.299,8.789,36.133,42.969,11.719,-54.199
1587019725.303,53.711,35.645,40.527,43.945,-39.551
1587019725.307,90.820,34.668,38.086,81.055,32.227
1587019725.311,43.457,37.109,40.039,48.828,40.527
1587019725.315,-8.301,37.598,41.016,-3.906,47.363
1587019725.319,14.160,34.668,36.621,11.230,91.309
1587019725.322,68.359,32.715,38.574,64.453,32.715
1587019725.326,45.410,31.250,39.551,57.129,52.246
1587019725.330,-24.902,31.738,39.062,1.953,71.777
1587019725.334,-18.066,29.297,41.016,0.488,-1.953
1587019725.338,45.898,24.902,41.504,53.711,24.902
1587019725.342,51.270,24.902,42.480,65.918,26.855
1587019725.346,-10.742,25.879,47.852,18.066,-21.484
1587019725.350,-29.297,22.949,45.410,-2.930,32.715
1587019725.354,31.250,22.461,41.016,46.387,13.184
1587019725.358,64.453,21.973,42.969,81.055,34.668
1587019725.362,21.484,25.879,47.852,44.434,66.406
1587019725.365,-7.812,28.320,48.340,11.719,11.230
1587019725.369,35.156,24.902,44.434,48.828,8.789
1587019725.373,86.914,26.855,40.527,95.703,38.574
1587019725.377,62.500,27.832,40.527,73.242,-5.371
1587019725.381,8.789,29.297,41.016,24.414,-27.832
1587019725.385,32.227,28.809,37.598,36.621,11.719
1587019725.389,86.426,28.809,36.133,87.891,42.969
1587019725.393,71.289,31.250,35.645,77.148,55.664
1587019725.397,12.207,36.621,39.062,25.879,67.871
1587019725.401,6.348,35.156,37.109,17.090,-14.160
1587019725.405,71.289,31.250,33.203,62.012,-45.410
1587019725.408,81.055,31.250,34.668,81.055,17.090
1587019725.412,11.230,32.227,33.691,27.344,10.742
1587019725.416,-1.953,37.109,31.250,-2.930,-10.742
1587019725.420,47.852,35.645,31.738,43.945,31.250
1587019725.424,82.031,35.645,34.180,78.125,24.414
1587019725.428,40.039,40.527,32.227,37.598,16.113
1587019725.432,-8.301,42.480,29.785,-7.812,45.898
1587019725.436,24.414,38.574,26.367,16.113,13.672
1587019725.440,71.777,37.109,22.949,61.035,44.922
1587019725.444,38.086,41.504,26.855,38.574,61.523
1587019725.447,-21.973,41.992,32.227,-15.137,55.176
1587019725.451,-1.953,40.039,33.691,-7.324,52.734
1587019725.455,69.336,37.109,32.227,46.875,39.551
1587019725.459,61.035,35.645,32.715,50.781,57.129
1587019725.463,-9.277,35.645,33.203,-3.906,60.547
1587019725.467,-13.672,36.133,31.250,-17.090,73.730
1587019725.471,52.734,35.645,30.273,38.086,91.309
1587019725.475,75.195,35.645,31.738,64.453,60.547
1587019725.479,11.719,34.668,28.320,10.742,11.230
1587019725.483,-22.461,32.715,27.344,-24.414,-17.578
1587019725.487,26.367,28.809,27.344,19.043,0.000
1587019725.490,62.988,29.297,28.320,62.012,27.832
1587019725.494,22.949,32.227,32.227,29.785,37.598
1587019725.498,-21.973,28.320,32.715,-14.648,63.965
1587019725.502,12.695,25.391,27.832,7.324,31.738
1587019725.506,67.383,22.949,23.438,61.035,44.922
1587019725.510,34.180,23.926,29.297,54.199,76.172
1587019725.514,-23.926,26.367,33.691,-1.465,35.645
1587019725.518,-3.906,22.461,31.250,0.977,4.883
1587019725.522,50.781,20.508,27.344,51.758,-19.531
1587019725.526,47.363,22.461,31.738,54.688,37.109
1587019725.530,-9.277,26.367,35.645,1.953,42.480
1587019725.533,-18.066,24.414,31.250,-17.090,0.488
1587019725.537,43.945,22.949,29.785,30.762,16.602
1587019725.541,64.941,22.461,27.832,57.617,19.531
1587019725.545,13.184,22.461,28.320,16.113,25.391
1587019725.549,-19.531,25.879,32.227,-10.742,-3.418
1587019725.553,17.578,26.855,31.250,30.762,26.367
1587019725.557,71.289,24.902,30.762,75.684,32.227
1587019725.561,40.039,29.297,31.738,48.340,34.180
1587019725.565,-5.371,41.504,34.668,4.395,47.363
1587019725.569,31.738,41.992,31.738,21.484,14.648
1587019725.572,90.820,39.551,26.855,71.777,29.785
1587019725.576,74.219,42.969,30.762,64.941,48.340
1587019725.580,12.695,45.898,37.598,11.719,39.062
1587019725.584,11.230,43.457,38.574,9.766,24.902
1587019725.588,68.848,40.039,37.598,59.570,46.387
1587019725.592,74.707,39.062,41.992,63.477,77.148
1587019725.596,6.348,38.574,39.551,1.465,11.719
1587019725.600,-22.949,38.086,35.156,-26.367,21.973
1587019725.604,31.250,36.133,37.598,19.531,32.227
1587019725.608,57.129,35.645,39.062,49.316,-10.742
1587019725.612,-2.930,36.133,38.086,6.348,33.691
1587019725.615,-41.992,37.598,36.621,-34.668,23.438
1587019725.619,0.488,34.668,34.180,-2.930,48.828
1587019725.623,48.340,34.180,30.273,46.387,88.379
1587019725.627,19.043,36.133,31.738,23.926,26.855
1587019725.631,-30.762,34.668,34.180,-23.438,24.414
1587019725.635,-3.418,33.691,32.715,-7.324,16.113
1587019725.639,58.105,34.668,28.809,48.340,38.086
1587019725.643,52.734,39.062,27.344,49.316,36.133
1587019725.647,-4.395,43.457,28.809,-7.324,7.812
1587019725.651,-5.371,45.898,26.855,-15.625,71.777
1587019725.655,63.965,41.992,21.973,36.621,49.316
1587019725.658,82.031,38.574,21.973,56.152,15.137
1587019725.662,17.090,43.457,29.297,12.207,31.250
1587019725.666,-7.324,46.387,29.785,-12.695,27.832
1587019725.670,52.246,43.457,24.902,29.297,43.457
1587019725.674,96.680,42.480,21.484,67.871,42.969
1587019725.678,50.293,47.363,24.414,35.156,16.113
1587019725.682,4.395,47.363,27.344,-1.465,19.043
1587019725.686,44.922,43.945,24.902,29.297,18.555
1587019725.690,89.355,42.969,25.879,78.125,34.180
1587019725.694,59.570,44.922,30.273,61.035,48.828
1587019725.697,1.465,43.457,26.855,10.742,31.250
1587019725.701,11.230,41.016,22.461,18.066,16.113
1587019725.705,72.754,36.621,22.461,67.871,35.156
1587019725.709,71.777,38.086,27.344,74.707,52.734
1587019725.713,14.160,41.504,34.668,26.855,41.016
1587019725.717,6.836,37.598,33.203,11.719,-8.301
1587019725.721,64.453,31.738,30.762,59.082,19.531
1587019725.725,84.473,30.273,33.203,85.449,45.410
1587019725.729,23.926,30.762,35.156,41.016,29.785
1587019725.733,-2.441,30.762,32.227,8.789,26.367
1587019725.737,50.781,27.344,27.832,41.504,33.203
1587019725.740,84.473,26.855,27.832,71.777,65.430
1587019725.744,32.715,29.785,31.738,38.086,30.273
1587019725.748,-16.602,30.273,32.227,-3.418,18.066
1587019725.752,18.555,28.809,32.227,15.625,2.441
1587019725.756,80.078,24.414,31.738,63.477,12.695
1587019725.760,61.523,26.367,35.156,55.176,32.227
1587019725.764,-1.465,28.809,35.156,2.441,10.742
1587019725.768,7.324,33.691,33.691,2.930,18.066
1587019725.772,63.965,31.738,31.738,54.688,24.902
1587019725.776,62.012,31.250,30.273,60.547,53.711
1587019725.780,1.953,35.156,39.062,5.859,29.785
1587019725.783,-8.301,37.109,40.527,-12.695,23.926
1587019725.787,50.293,34.668,36.133,35.645,31.738
1587019725.791,68.848,31.250,37.598,62.988,40.527
1587019725.795,19.043,34.180,41.504,20.996,-12.207
1587019725.799,-16.602,31.250,41.016,-14.648,-9.766
1587019725.803,27.344,27.832,36.133,18.066,17.090
1587019725.807,75.684,29.297,34.180,61.523,44.922
1587019725.811,34.180,32.227,36.133,33.691,70.801
1587019725.815,-17.090,33.203,37.598,-14.160,24.902
1587019725.819,9.766,26.855,37.109,5.859,-5.859
1587019725.822,59.082,25.391,36.133,58.594,57.617
1587019725.826,40.039,29.297,35.645,51.270,66.406
1587019725.830,-22.461,32.227,39.062,-2.930,20.996
1587019725.834,-13.672,31.250,36.621,-13.184,-5.859
1587019725.838,60.547,32.227,32.715,40.527,7.324
1587019725.842,73.242,34.180,36.133,61.523,59.082
1587019725.846,10.254,32.715,38.086,12.207,71.777
1587019725.850,-12.207,32.715,41.016,-9.766,16.113
1587019725.854,49.805,31.250,38.086,36.133,35.156
1587019725.858,81.055,30.762,32.227,66.895,55.176
1587019725.862,18.066,32.715,31.738,26.855,1.465
1587019725.865,-16.113,32.715,31.250,-8.789,6.836
1587019725.869,37.109,34.668,32.227,24.902,62.500
1587019725.873,83.984,32.715,29.785,71.289,39.062
1587019725.877,55.664,32.715,31.738,47.852,53.223
1587019725.881,-3.906,33.691,36.621,-2.930,41.504
1587019725.885,13.184,32.715,32.715,9.766,56.152
1587019725.889,69.336,31.250,30.273,65.918,82.031
1587019725.893,57.129,34.180,35.645,62.012,75.195
1587019725.897,-2.441,36.133,38.574,4.883,66.895
1587019725.901,-4.883,36.621,37.109,-5.371,7.324
1587019725.905,58.105,35.156,34.668,42.480,16.602
1587019725.908,66.895,32.227,35.645,62.500,30.762
1587019725.912,-3.418,33.203,39.551,13.672,11.719
1587019725.916,-31.250,30.762,35.645,-22.949,1.953
1587019725.920,31.738,31.250,33.691,21.973,37.598
1587019725.924,71.289,34.668,34.180,67.383,59.082
1587019725.928,19.531,30.762,33.691,30.273,75.195
1587019725.932,-19.531,34.180,35.645,-12.207,66.895
1587019725.936,30.762,37.598,34.668,14.160,26.855
1587019725.940,74.219,33.691,29.785,59.082,30.762
1587019725.944,44.434,34.180,32.227,41.504,40.039
1587019725.947,-6.836,36.133,38.574,-7.324,68.848
1587019725.951,5.371,32.715,38.086,2.441,39.551
1587019725.955,67.383,31.250,32.715,59.082,6.836
1587019725.959,63.965,32.227,29.297,64.453,70.801
1587019725.963,-3.906,35.156,33.203,11.230,10.254
1587019725.967,-6.836,33.691,34.668,-2.441,-4.883
1587019725.971,51.270,30.273,31.738,46.387,69.824
1587019725.975,69.336,32.227,29.297,68.359,79.102
1587019725.979,23.438,36.133,30.273,23.926,46.387
1587019725.983,-9.766,36.133,33.203,-6.348,3.906
1587019725.987,35.645,30.762,31.738,29.785,-11.230
1587019725.990,71.289,27.344,31.738,70.312,1.953
1587019725.994,25.879,28.809,33.691,36.133,11.719
1587019725.998,-16.113,30.273,37.109,-13.184,27.344
1587019726.002,18.555,29.297,36.133,10.742,59.570
1587019726.006,68.848,29.297,33.203,64.453,1.465
1587019726.010,47.363,28.320,36.621,53.711,36.621
1587019726.014,-2.441,30.273,38.574,3.906,86.914
1587019726.018,11.719,32.715,37.598,12.207,28.320
1587019726.022,73.730,30.273,35.156,70.312,16.602
1587019726.026,84.961,32.227,37.598,85.938,19.043
1587019726.030,22.461,37.598,41.504,34.180,55.664
1587019726.033,9.766,36.621,38.574,16.602,56.152
1587019726.037,72.266,31.738,36.133,65.430,-8.301
1587019726.041,94.727,30.762,36.133,89.355,6.348
1587019726.045,30.273,33.691,36.133,44.922,73.242
1587019726.049,4.395,33.203,38.574,10.254,79.590
1587019726.053,56.641,30.273,37.109,42.969,37.598
1587019726.057,90.820,30.273,31.250,82.520,3.418
1587019726.061,52.246,32.227,35.645,56.152,-16.113
1587019726.065,1.953,31.738,37.109,4.395,-21.484
1587019726.069,16.113,31.250,32.715,15.625,8.301
1587019726.072,67.383,31.738,32.715,66.895,36.621
1587019726.076,63.477,32.227,35.645,57.617,10.742
1587019726.080,0.977,35.156,36.621,2.441,3.418
1587019726.084,0.488,35.645,32.227,-4.395,34.180
1587019726.088,59.082,31.738,30.273,42.480,43.945
1587019726.092,67.383,34.668,29.297,55.176,41.016
1587019726.096,5.371,41.016,34.668,6.836,36.133
1587019726.100,-20.020,38.086,35.156,-20.508,22.461
1587019726.104,31.250,35.645,29.297,22.949,-8.789
1587019726.108,64.453,37.109,30.273,61.523,18.066
1587019726.112,17.578,39.062,35.156,23.438,66.895
1587019726.115,-14.648,36.133,35.156,-13.184,33.691
1587019726.119,41.992,35.645,30.273,24.414,58.105
1587019726.123,90.332,35.645,30.273,71.777,112.305
1587019726.127,54.199,36.133,34.668,48.828,51.270
1587019726.131,-3.906,37.109,37.109,1.465,22.461
1587019726.135,14.648,32.227,35.156,11.719,59.082
1587019726.139,75.195,31.250,33.691,62.988,41.992
1587019726.143,63.477,34.668,33.203,60.547,-11.230
1587019726.147,-3.906,35.645,35.645,9.277,22.461
1587019726.151,-6.348,39.062,35.645,4.395,52.734
1587019726.155,62.988,39.551,31.738,52.734,-38.086
1587019726.158,84.473,35.645,32.715,69.336,-56.152
1587019726.162,27.344,36.133,34.180,23.438,0.977
1587019726.166,-6.348,34.668,33.203,-6.348,-3.906
1587019726.170,40.039,33.203,36.621,41.016,-5.859
1587019726.174,83.984,34.668,39.062,78.613,7.812
1587019726.178,40.527,33.691,40.039,40.527,36.621
1587019726.182,-9.277,31.250,41.504,-0.977,47.363
1587019726.186,27.344,26.855,39.062,20.020,-27.344
1587019726.190,74.707,24.902,35.156,64.453,-15.137
1587019726.194,52.734,28.320,33.203,51.270,4.883
1587019726.197,0.000,32.715,34.668,3.418,14.648
1587019726.201,8.301,33.203,33.691,7.812,47.363
1587019726.205,66.406,31.738,28.809,62.012,40.039
1587019726.209,79.590,31.738,26.367,72.266,56.152
1587019726.213,11.230,33.203,31.738,17.578,16.602
1587019726.217,-22.461,26.855,33.203,-10.254,-33.691
1587019726.221,43.945,23.926,32.715,41.992,-33.203
1587019726.225,69.824,27.344,38.574,73.730,19.043
1587019726.229,13.672,29.297,41.016,20.508,73.242
1587019726.233,-15.137,27.832,39.551,-20.996,45.898
1587019726.237,32.715,25.391,36.621,17.578,42.969
1587019726.240,73.242,28.320,31.250,66.406,44.434
1587019726.244,33.691,32.715,30.762,41.992,21.484
1587019726.248,-17.090,32.715,32.715,-7.812,4.395
1587019726.252,18.066,34.668,36.621,10.742,36.133
1587019726.256,86.914,35.645,33.203,57.129,15.137
1587019726.260,69.824,40.039,31.250,43.457,-2.441
1587019726.264,5.859,42.480,34.180,-11.719,-12.695
1587019726.268,13.184,38.086,31.250,-12.207,3.418
1587019726.272,69.824,36.133,29.297,50.781,34.668
1587019726.276,71.777,36.621,32.227,67.383,24.902
1587019726.280,4.395,35.645,40.039,23.926,17.578
1587019726.283,-17.090,36.621,41.016,9.766,-25.391
1587019726.287,45.410,33.691,37.109,49.805,8.789
1587019726.291,67.383,28.320,37.109,75.684,64.453
1587019726.295,11.719,28.809,40.527,33.203,-11.230
1587019726.299,-30.273,26.855,40.527,-2.441,-1.953
1587019726.303,17.090,22.461,36.621,33.203,54.199
1587019726.307,70.801,23.926,36.133,75.684,83.008
1587019726.311,28.809,29.297,37.109,47.852,104.980
1587019726.315,-19.531,31.738,37.109,-2.930,58.105
1587019726.319,15.625,31.250,36.133,13.672,32.227
1587019726.322,76.172,31.738,35.645,68.359,29.785
1587019726.326,62.012,34.668,39.062,63.477,-0.977
1587019726.330,0.000,33.691,41.504,9.277,-23.926
1587019726.334,-5.859,29.297,39.551,3.418,-45.410
1587019726.338,54.688,27.832,38.574,58.594,27.344
1587019726.342,71.289,30.762,37.109,71.289,18.066
1587019726.346,11.719,31.738,38.574,18.066,74.707
1587019726.350,-14.160,33.691,44.434,-6.348,100.098
1587019726.354,35.645,38.574,40.527,39.062,14.648
1587019726.358,77.148,34.668,32.227,74.219,36.133
1587019726.362,29.785,32.715,34.180,37.109,10.254
1587019726.365,-13.184,32.715,37.109,-1.465,-42.480
1587019726.369,28.320,31.250,34.668,27.832,34.180
1587019726.373,77.637,29.785,33.691,70.801,78.613
1587019726.377,43.945,30.762,36.621,45.898,45.898
1587019726.381,-11.719,34.180,39.551,-6.348,-13.184
1587019726.385,2.930,33.691,38.574,0.977,1.953
1587019726.389,50.781,32.227,34.180,54.199,61.523
1587019726.393,48.340,34.180,34.668,53.711,21.973
1587019726.397,5.859,38.574,39.062,0.488,-12.207
1587019726.401,2.930,37.598,34.668,-9.277,8.301
1587019726.405,57.617,32.715,30.273,42.969,5.859
1587019726.408,71.289,29.785,31.250,62.500,70.801
1587019726.412,11.230,28.809,34.668,13.184,71.289
1587019726.416,-9.277,30.762,38.086,-15.137,44.922
1587019726.420,46.875,31.738,38.086,23.926,-1.465
1587019726.424,83.008,25.391,34.668,58.105,11.230
1587019726.428,34.180,26.855,33.691,28.320,44.922
1587019726.432,-7.812,31.250,36.133,-12.207,53.711
1587019726.436,34.668,28.320,35.645,16.602,79.102
1587019726.440,84.473,26.855,34.180,72.266,83.496
1587019726.444,65.430,31.738,36.621,56.152,91.797
1587019726.447,9.766,32.227,37.109,1.953,93.750
1587019726.451,14.648,29.297,33.691,6.348,110.352
1587019726.455,83.496,28.809,30.762,59.082,87.891
1587019726.459,88.379,28.320,33.691,63.965,75.684
1587019726.463,13.184,31.250,38.574,10.254,34.180
1587019726.467,-6.348,34.180,38.574,-4.883,9.766
1587019726.471,48.828,28.809,37.109,43.457,27.344
1587019726.475,75.195,27.344,33.691,67.871,40.039
1587019726.479,23.926,34.668,36.133,23.926,19.043
1587019726.483,-9.766,36.621,35.645,-11.719,20.020
1587019726.487,42.480,32.227,29.785,25.391,29.297
1587019726.490,81.055,29.785,29.297,69.824,22.949
1587019726.494,48.340,33.203,30.273,39.062,34.668
1587019726.498,6.836,35.156,30.273,-3.906,-38.574
1587019726.502,26.367,33.691,34.180,16.113,-67.383
1587019726.506,76.660,28.320,39.551,68.359,8.301
1587019726.510,61.523,28.320,41.504,60.547,39.551
1587019726.514,13.184,31.738,42.969,9.766,53.223
1587019726.518,21.973,29.297,40.527,9.277,-59.082
1587019726.522,76.660,27.344,36.133,61.035,-42.969
1587019726.526,79.590,29.297,34.180,77.148,44.922
1587019726.530,14.648,31.250,34.180,23.926,14.648
1587019726.533,-0.488,30.762,33.691,-3.418,15.137
1587019726.537,61.523,28.809,28.809,41.016,20.020
1587019726.541,86.914,30.762,28.809,71.289,34.668
1587019726.545,34.668,33.691,33.691,33.691,21.484
1587019726.549,0.000,33.691,35.645,-0.977,-21.484
1587019726.553,41.504,30.273,30.762,30.273,19.043
1587019726.557,90.332,32.715,31.250,78.125,65.430
1587019726.561,56.641,38.574,37.109,56.641,107.422
1587019726.565,0.000,41.016,34.668,6.836,56.152
1587019726.569,28.809,37.109,31.250,18.066,25.879
1587019726.572,73.242,32.227,29.785,70.801,40.527
1587019726.576,52.246,33.203,29.785,68.359,-3.906
1587019726.580,14.160,36.621,32.715,14.648,-8.301
1587019726.584,15.625,32.715,34.668,7.812,30.762
1587019726.588,65.918,29.297,29.297,59.082,34.668
1587019726.592,75.195,34.180,29.297,70.312,35.645
1587019726.596,25.879,37.109,32.227,19.043,64.453
1587019726.600,5.371,38.086,30.762,-6.348,32.715
1587019726.604,57.617,37.109,30.273,34.668,23.438
1587019726.608,86.914,34.668,29.297,66.406,38.086
1587019726.612,34.668,34.668,28.320,28.320,43.945
1587019726.615,-11.230,34.180,30.762,-12.695,88.867
1587019726.619,24.902,34.668,33.691,19.043,92.285
1587019726.623,91.797,33.203,30.273,72.266,41.016
1587019726.627,55.664,35.156,31.250,52.734,55.176
1587019726.631,-16.602,40.039,38.086,-1.465,36.133
1587019726.635,20.508,38.086,35.156,4.395,-5.371
1587019726.639,78.125,34.180,29.297,60.059,45.410
1587019726.643,62.500,39.062,32.715,65.430,76.172
1587019726.647,1.465,41.016,33.203,15.137,42.480
1587019726.651,-0.488,36.133,26.367,-3.906,18.066
1587019726.655,66.895,32.715,24.902,43.457,32.715
1587019726.658,79.102,31.250,27.344,69.336,28.809
1587019726.662,22.461,34.180,35.156,24.414,35.156
1587019726.666,-7.324,36.133,40.039,-1.465,44.434
1587019726.670,39.551,30.762,37.109,40.039,37.598
1587019726.674,79.102,26.367,36.133,75.684,30.273
1587019726.678,40.527,28.809,36.133,43.457,17.578
1587019726.682,-5.859,30.762,40.527,2.441,-38.574
1587019726.686,30.273,28.809,37.109,21.973,27.344
1587019726.690,80.566,25.879,29.785,65.430,97.168
1587019726.694,51.270,29.785,35.156,47.363,24.902
1587019726.697,-7.324,32.715,39.551,-10.254,-10.254
1587019726.701,4.395,32.227,35.645,-4.395,-13.184
1587019726.705,64.453,32.715,31.738,48.828,10.742
1587019726.709,61.035,32.227,31.738,53.223,44.434
1587019726.713,0.977,33.203,36.133,7.324,28.320
1587019726.717,-1.953,33.691,37.109,-6.836,5.859
1587019726.721,60.547,32.227,31.250,39.551,-7.324
1587019726.725,90.820,32.227,33.203,68.848,1.465
1587019726.729,31.250,35.156,41.016,32.227,18.066
1587019726.733,-15.625,35.645,40.527,2.441,31.738
1587019726.737,38.574,28.809,34.180,36.621,11.230
1587019726.740,85.938,25.391,30.273,77.148,-23.926
1587019726.744,41.504,30.762,33.691,50.293,-6.836
1587019726.748,-7.324,35.156,41.992,6.348,27.832
1587019726.752,15.625,39.062,44.922,25.879,43.457
1587019726.756,51.758,36.133,41.992,74.707,73.242
1587019726.760,38.086,36.621,46.387,55.664,35.156
1587019726.764,-9.766,43.945,53.711,-5.371,-17.090
1587019726.768,-14.160,36.133,53.711,-20.508,7.324
1587019726.772,9.277,28.320,42.480,8.301,109.375
1587019726.776,3.418,27.344,39.551,-1.953,96.680
1587019726.780,-50.781,48.828,66.895,-53.223,49.805
1587019726.783,-69.824,68.359,84.473,-65.918,16.113
1587019726.787,-57.617,45.410,58.594,-70.801,22.461
1587019726.791,-73.242,37.109,54.199,-83.008,9.766
1587019726.795,-139.160,43.945,62.988,-131.348,4.395
1587019726.799,-198.242,47.852,61.035,-196.777,33.691
1587019726.803,-175.781,49.316,63.477,-189.453,76.172
1587019726.807,-149.902,52.246,67.383,-157.715,81.543
1587019726.811,-204.102,55.664,70.312,-194.824,86.914
1587019726.815,-256.836,55.664,68.848,-250.977,65.430
1587019726.819,-222.656,50.293,69.336,-229.980,45.410
1587019726.822,-145.508,46.875,67.871,-157.715,36.621
1587019726.826,-134.766,46.875,72.266,-136.719,16.602
1587019726.830,-177.734,38.086,69.336,-169.434,21.973
1587019726.834,-143.555,32.715,62.500,-147.949,21.973
1587019726.838,-48.828,31.738,56.641,-66.895,82.520
1587019726.842,-9.766,30.273,43.945,-20.996,44.922
1587019726.846,-46.387,31.738,41.016,-38.086,-12.207
1587019726.850,-54.688,30.762,40.039,-41.992,20.996
1587019726.854,23.926,25.879,34.180,15.625,-10.742
1587019726.858,81.543,25.391,28.809,62.988,32.227
1587019726.862,49.805,26.367,27.832,41.992,74.707
1587019726.865,20.508,22.461,23.926,14.160,-33.691
1587019726.869,65.918,21.484,18.555,47.852,-5.371
1587019726.873,128.418,23.438,16.113,106.934,48.340
1587019726.877,106.445,23.926,13.184,98.633,56.152
1587019726.881,53.223,26.367,14.160,55.664,47.852
1587019726.885,83.008,26.367,15.137,71.777,14.160
1587019726.889,148.926,27.832,11.719,134.277,-9.277
1587019726.893,141.113,29.785,15.137,142.578,7.812
1587019726.897,86.914,26.855,13.672,92.773,51.270
1587019726.901,80.566,27.344,13.672,86.914,59.082
1587019726.905,145.508,24.414,18.555,142.578,45.410
1587019726.908,166.504,20.508,18.066,164.062,30.273
1587019726.912,99.609,24.902,23.438,114.746,-23.438
1587019726.916,67.383,26.367,23.926,84.473,14.648
1587019726.920,125.488,25.879,19.531,124.512,49.316
1587019726.924,166.992,27.344,16.602,156.738,-24.902
1587019726.928,119.141,27.832,20.020,121.094,-6.348
1587019726.932,72.754,28.809,24.902,78.125,0.000
1587019726.936,104.004,27.344,19.043,92.773,21.973
1587019726.940,153.809,24.902,16.602,138.672,36.133
1587019726.944,130.371,29.297,22.461,127.930,18.555
1587019726.947,62.500,33.691,26.855,75.684,4.883
1587019726.951,67.383,29.297,27.344,71.777,-5.371
1587019726.955,136.230,29.297,24.414,121.094,-5.371
1587019726.959,138.672,31.738,23.438,132.324,38.086
1587019726.963,74.707,34.180,27.344,80.078,61.523
1587019726.967,56.152,35.645,28.809,57.129,5.859
1587019726.971,118.652,34.180,26.855,105.957,31.738
1587019726.975,151.855,34.180,27.344,137.695,73.730
1587019726.979,96.680,37.109,32.227,93.750,32.227
1587019726.983,59.082,39.551,31.250,53.223,-30.762
1587019726.987,97.168,33.691,24.902,84.473,-44.434
1587019726.990,133.301,31.738,28.809,132.812,7.812
1587019726.994,87.891,36.133,34.668,106.934,27.832
1587019726.998,31.250,38.574,33.691,58.594,13.672
1587019727.002,58.594,33.203,32.227,71.289,62.500
1587019727.006,103.516,30.762,32.715,116.699,34.180
1587019727.010,78.613,33.203,36.621,107.422,67.871
1587019727.014,22.949,34.668,38.574,50.781,97.656
1587019727.018,35.156,34.180,33.691,44.434,16.602
1587019727.022,96.680,30.762,30.273,94.238,5.859
1587019727.026,104.492,31.250,31.738,104.492,77.148
1587019727.030,38.574,36.621,33.203,49.316,111.816
1587019727.033,17.090,38.086,34.180,20.020,75.684
1587019727.037,73.242,32.715,31.250,62.988,51.270
1587019727.041,98.145,31.738,29.785,95.215,48.828
1587019727.045,48.828,36.133,34.668,51.758,51.758
1587019727.049,9.766,37.598,34.668,10.742,28.809
1587019727.053,47.852,33.691,32.227,40.527,17.090
1587019727.057,102.539,32.715,30.762,86.426,15.137
1587019727.061,65.430,34.180,33.691,67.871,62.500
1587019727.065,9.277,34.668,40.527,26.367,-2.441
1587019727.069,37.598,29.785,42.480,42.480,-7.324
1587019727.072,98.145,25.391,36.621,91.797,89.355
1587019727.076,87.402,29.297,38.086,85.449,66.406
1587019727.080,21.484,35.645,42.480,30.762,50.781
1587019727.084,18.066,34.668,38.574,18.066,-1.465
1587019727.088,76.660,32.227,32.715,67.383,-16.602
1587019727.092,87.891,33.203,33.691,84.473,54.199
1587019727.096,36.621,37.109,39.062,35.645,41.992
1587019727.100,16.113,37.598,37.109,8.789,-17.090
1587019727.104,65.430,31.738,31.250,51.758,-2.441
1587019727.108,94.727,31.250,30.273,89.355,11.719
1587019727.112,48.340,36.133,33.203,56.152,36.133
1587019727.115,5.371,37.598,34.668,15.625,41.016
1587019727.119,38.574,37.109,34.668,38.574,-19.531
1587019727.123,87.402,36.133,30.762,86.914,-12.695
1587019727.127,63.477,33.203,26.367,69.824,30.762
1587019727.131,6.836,36.621,32.227,19.043,30.762
1587019727.135,22.461,38.086,32.715,26.367,30.762
1587019727.139,88.867,38.086,25.391,80.566,56.641
1587019727.143,92.285,39.062,23.438,83.984,48.340
1587019727.147,29.297,38.086,31.738,34.180,60.547
1587019727.151,15.625,39.551,34.180,21.973,16.602
1587019727.155,78.613,37.598,30.273,65.430,1.953
1587019727.158,104.492,37.598,33.691,88.867,9.277
1587019727.162,39.551,36.621,35.156,42.480,21.484
